%OpenBCI Raw EEG Data
%Number of channels = 8
%Sample Rate = 250 Hz
%Board = OpenBCI_GUI$BoardCytonSerial
Sample Index, EXG Channel 0, EXG Channel 1, EXG Channel 2, EXG Channel 3, EXG Channel 4, EXG Channel 5, EXG Channel 6, EXG Channel 7, Accel Channel 0, Accel Channel 1, Accel Channel 2, Other, Other, Other, Other, Other, Other, Other, Analog Channel 0, Analog Channel 1, Analog Channel 2, Timestamp, Other, Timestamp (Formatted)
0.0, 0.0, 0.0, 0.0, 0.0, 0.0, 0.0, 0.0, 0.0, 0.0, 0.0, 0.0, 193.0, 1.0, 204.0, 0.0, 5.0, 0.0, 0.0, 460.0, 5.0, 0.0, 1.681499066546114E9, 0.0, 2023-04-14 13:04:26.546
1.0, 32962.899859297264, 27185.84563563414, 21875.920519342486, 26093.02414572527, -7336.446027332071, 10324.628391817618, 45708.266879113544, 18662.611384703087, 0.0, 0.0, 0.0, 193.0, 1.0, 132.0, 0.0, 5.0, 0.0, 0.0, 388.0, 5.0, 0.0, 1.681499066553267E9, 0.0, 2023-04-14 13:04:26.553
2.0, 32924.05252743394, 27130.7038820629, 21067.279108438386, 25597.19539847319, -7433.206729079096, 10254.846245628149, 45204.48091083538, 18539.296810543157, 0.0, 0.0, 0.0, 193.0, 1.0, 87.0, 0.0, 5.0, 0.0, 0.0, 343.0, 5.0, 0.0, 1.68149906656026E9, 0.0, 2023-04-14 13:04:26.560
3.0, 32928.70169028064, 27128.446355872915, 20670.625051334508, 25517.4220225122, -7383.250580221485, 10301.270818861822, 45158.88335214655, 18598.461878116355, 0.0, 0.0, 0.0, 193.0, 1.0, 49.0, 0.0, 5.0, 0.0, 0.0, 305.0, 5.0, 0.0, 1.681499066560277E9, 0.0, 2023-04-14 13:04:26.560
4.0, 32961.53640288549, 27172.300478494228, 21350.676876387224, 25950.12944342249, -7277.057442314321, 10381.223008778454, 45638.1718085017, 18731.834737281173, 0.0, 0.0, 0.0, 193.0, 1.0, 19.0, 0.0, 5.0, 0.0, 0.0, 275.0, 5.0, 0.0, 1.681499066566922E9, 0.0, 2023-04-14 13:04:26.566
5.0, 32979.01546704954, 27185.4656559784, 21907.928217402485, 26125.434175185466, -7314.138986365675, 10342.174511215033, 45761.77695533955, 18688.22648384887, 0.0, 0.0, 0.0, 193.0, 0.0, 252.0, 0.0, 5.0, 0.0, 0.0, 252.0, 5.0, 0.0, 1.681499066566934E9, 0.0, 2023-04-14 13:04:26.566
6.0, 32944.012635232524, 27133.743719308823, 21231.072691806876, 25664.27298358357, -7427.216461565074, 10260.03185034178, 45279.89569662759, 18547.56695599162, 0.0, 0.0, 0.0, 193.0, 0.0, 233.0, 0.0, 5.0, 0.0, 0.0, 233.0, 5.0, 0.0, 1.681499066574898E9, 0.0, 2023-04-14 13:04:26.574
7.0, 32938.223533418604, 27133.654312331, 20657.28105989469, 25451.171451946673, -7408.508051455981, 10280.349586051654, 45109.55305213369, 18570.835121969598, 0.0, 0.0, 0.0, 193.0, 0.0, 218.0, 0.0, 5.0, 0.0, 0.0, 218.0, 5.0, 0.0, 1.681499066574909E9, 0.0, 2023-04-14 13:04:26.574
8.0, 32971.013542534536, 27179.676554164478, 21171.102961433287, 25863.22586098026, -7288.210962797519, 10373.846933108203, 45538.50537997549, 18713.50630682782, 0.0, 0.0, 0.0, 193.0, 0.0, 206.0, 0.0, 5.0, 0.0, 0.0, 206.0, 5.0, 0.0, 1.681499066582819E9, 0.0, 2023-04-14 13:04:26.582
9.0, 32990.48191195511, 27199.279034051782, 21912.57738024919, 26183.079324135702, -7288.3450732642505, 10367.655499894083, 45812.1130838529, 18726.51502210081, 0.0, 0.0, 0.0, 193.0, 0.0, 196.0, 0.0, 5.0, 0.0, 0.0, 196.0, 5.0, 0.0, 1.681499066582833E9, 0.0, 2023-04-14 13:04:26.582
10.0, 32965.269144209524, 27160.36464695509, 21398.308443821483, 25776.031705860103, -7402.026045563942, 10266.580911467185, 45373.08011926176, 18572.891482459483, 0.0, 0.0, 0.0, 193.0, 0.0, 188.0, 0.0, 5.0, 0.0, 0.0, 188.0, 5.0, 0.0, 1.681499066590173E9, 0.0, 2023-04-14 13:04:26.590
11.0, 32958.29539993947, 27142.796175813222, 20714.00978732226, 25507.162571807217, -7396.683978639124, 10277.913245906026, 45114.73865684732, 18575.305470860658, 0.0, 0.0, 0.0, 193.0, 0.0, 182.0, 0.0, 5.0, 0.0, 0.0, 182.0, 5.0, 0.0, 1.681499066590192E9, 0.0, 2023-04-14 13:04:26.590
12.0, 32985.45276945266, 27175.496777951335, 21033.72914001097, 25788.10164786597, -7292.189573310563, 10360.793514346304, 45456.8321057358, 18699.75998398781, 0.0, 0.0, 0.0, 193.0, 0.0, 178.0, 0.0, 5.0, 0.0, 0.0, 178.0, 5.0, 0.0, 1.681499066597582E9, 0.0, 2023-04-14 13:04:26.597
13.0, 33014.26416805555, 27220.15556337304, 21875.697001897934, 26183.23578634689, -7263.601692152226, 10386.788593147827, 45839.44926732174, 18751.794845079763, 0.0, 0.0, 0.0, 193.0, 0.0, 174.0, 0.0, 5.0, 0.0, 0.0, 174.0, 5.0, 0.0, 1.681499066597604E9, 0.0, 2023-04-14 13:04:26.597
14.0, 32972.5334611575, 27167.159577269507, 21562.906689990366, 25850.351256174, -7389.8443448358, 10280.684862218484, 45473.037120465895, 18597.72427054933, 0.0, 0.0, 0.0, 193.0, 0.0, 170.0, 0.0, 5.0, 0.0, 0.0, 170.0, 5.0, 0.0, 1.681499066605616E9, 0.0, 2023-04-14 13:04:26.605
15.0, 32956.686074338686, 27136.448280387915, 20772.504302561796, 25487.04600179744, -7417.694618427113, 10270.246597557854, 45114.26927021376, 18567.214139367836, 0.0, 0.0, 0.0, 193.0, 0.0, 168.0, 0.0, 5.0, 0.0, 0.0, 168.0, 5.0, 0.0, 1.681499066605629E9, 0.0, 2023-04-14 13:04:26.605
16.0, 33004.831731895414, 27179.006001830818, 20901.22799887991, 25688.83755073995, -7306.606448484236, 10358.111305011667, 45371.29197970533, 18687.153600115016, 0.0, 0.0, 0.0, 193.0, 0.0, 166.0, 0.0, 5.0, 0.0, 0.0, 166.0, 5.0, 0.0, 1.681499066612553E9, 0.0, 2023-04-14 13:04:26.612
17.0, 33028.412822295766, 27216.132249371083, 21795.342480581105, 26167.924841395004, -7253.677517614069, 10411.353160304208, 45838.085810909964, 18775.5323976913, 0.0, 0.0, 0.0, 193.0, 0.0, 164.0, 0.0, 5.0, 0.0, 0.0, 164.0, 5.0, 0.0, 1.681499066619795E9, 0.0, 2023-04-14 13:04:26.619
18.0, 33016.90167390128, 27189.421914746992, 21736.847965341567, 25983.031211260703, -7368.833705047811, 10315.0841969352, 45590.763758511996, 18637.532727424234, 0.0, 0.0, 0.0, 193.0, 0.0, 163.0, 0.0, 5.0, 0.0, 0.0, 163.0, 5.0, 0.0, 1.681499066619809E9, 0.0, 2023-04-14 13:04:26.619
19.0, 33006.06107784046, 27159.872908577076, 20895.304786599256, 25547.68628450469, -7415.906478870688, 10282.204780841445, 45160.805602169705, 18574.657270271455, 0.0, 0.0, 0.0, 193.0, 0.0, 163.0, 0.0, 5.0, 0.0, 0.0, 163.0, 5.0, 0.0, 1.681499066627213E9, 0.0, 2023-04-14 13:04:26.627
20.0, 33018.53335124652, 27180.682382664967, 20814.480878648865, 25632.26528552357, -7322.8561667032445, 10349.103551996179, 45310.33877257571, 18672.580262730153, 0.0, 0.0, 0.0, 193.0, 0.0, 162.0, 0.0, 5.0, 0.0, 0.0, 162.0, 5.0, 0.0, 1.68149906662723E9, 0.0, 2023-04-14 13:04:26.627
21.0, 33026.177647850236, 27215.14877261505, 21647.150414842417, 26076.081523428147, -7257.320851960284, 10406.659293968594, 45798.76909241308, 18772.42550521201, 0.0, 0.0, 0.0, 193.0, 0.0, 161.0, 0.0, 5.0, 0.0, 0.0, 161.0, 5.0, 0.0, 1.68149906663516E9, 0.0, 2023-04-14 13:04:26.635
22.0, 33026.55762750597, 27199.457848007423, 21853.769940587277, 26054.48973828432, -7336.714248265535, 10329.165795942044, 45697.538041775, 18672.289690052236, 0.0, 0.0, 0.0, 193.0, 0.0, 161.0, 0.0, 5.0, 0.0, 0.0, 161.0, 5.0, 0.0, 1.681499066635169E9, 0.0, 2023-04-14 13:04:26.635
23.0, 33009.68206044222, 27159.269411476784, 21039.942924969546, 25598.916482796252, -7411.681999168635, 10271.274777802799, 45221.66940232151, 18571.505674303255, 0.0, 0.0, 0.0, 193.0, 0.0, 160.0, 0.0, 5.0, 0.0, 0.0, 160.0, 5.0, 0.0, 1.681499066642301E9, 0.0, 2023-04-14 13:04:26.642
24.0, 33022.98134839313, 27174.33448723966, 20756.38869480952, 25571.87087200533, -7345.945518725577, 10319.688656292994, 45244.356422943645, 18637.577430913145, 0.0, 0.0, 0.0, 193.0, 0.0, 160.0, 0.0, 5.0, 0.0, 0.0, 160.0, 5.0, 0.0, 1.681499066642321E9, 0.0, 2023-04-14 13:04:26.642
25.0, 33071.64109607233, 27225.631740764587, 21514.02342486661, 26020.58214194562, -7247.888415800145, 10405.921686401569, 45744.05202198649, 18771.173807522515, 0.0, 0.0, 0.0, 193.0, 0.0, 160.0, 0.0, 5.0, 0.0, 0.0, 160.0, 5.0, 0.0, 1.681499066649869E9, 0.0, 2023-04-14 13:04:26.649
26.0, 33066.52254659207, 27227.218714620914, 21941.925220719007, 26129.099861276136, -7312.864936931723, 10353.14921774259, 45780.44066195973, 18700.005853176815, 0.0, 0.0, 0.0, 193.0, 0.0, 160.0, 0.0, 5.0, 0.0, 0.0, 160.0, 5.0, 0.0, 1.681499066649886E9, 0.0, 2023-04-14 13:04:26.649
27.0, 33026.55762750597, 27177.441379718948, 21190.794848298414, 25664.921184172774, -7414.878298625744, 10277.332100550188, 45289.19402232099, 18570.701011502864, 0.0, 0.0, 0.0, 193.0, 0.0, 160.0, 0.0, 5.0, 0.0, 0.0, 160.0, 5.0, 0.0, 1.681499066657792E9, 0.0, 2023-04-14 13:04:26.657
28.0, 33036.034767155026, 27188.460789735414, 20737.881450400528, 25549.67558976121, -7361.569388099836, 10324.024894717324, 45207.96778297041, 18625.954523796383, 0.0, 0.0, 0.0, 193.0, 0.0, 159.0, 0.0, 5.0, 0.0, 0.0, 159.0, 5.0, 0.0, 1.68149906665781E9, 0.0, 2023-04-14 13:04:26.657
29.0, 33078.68189557575, 27250.95626723245, 21362.813873626455, 25949.391835855466, -7247.754305333413, 10415.331770817253, 45682.405910778754, 18771.956118578448, 0.0, 0.0, 0.0, 193.0, 0.0, 159.0, 0.0, 5.0, 0.0, 0.0, 159.0, 5.0, 0.0, 1.681499066665853E9, 0.0, 2023-04-14 13:04:26.665
30.0, 33100.608956886404, 27260.768683048333, 22003.3925179711, 26189.13664688309, -7268.429668954572, 10389.068471082268, 45874.63091309439, 18749.89494680106, 0.0, 0.0, 0.0, 193.0, 0.0, 159.0, 0.0, 5.0, 0.0, 0.0, 159.0, 5.0, 0.0, 1.681499066665869E9, 0.0, 2023-04-14 13:04:26.665
31.0, 33077.54195660853, 27211.639548735566, 21382.66222270277, 25751.62360091491, -7378.959045286066, 10295.124089136612, 45403.00910508742, 18602.77576479623, 0.0, 0.0, 0.0, 193.0, 0.0, 159.0, 0.0, 5.0, 0.0, 0.0, 159.0, 5.0, 0.0, 1.681499066672124E9, 0.0, 2023-04-14 13:04:26.672
32.0, 33070.36704663838, 27195.434534005468, 20760.12143613356, 25521.355929536337, -7360.5412078548925, 10307.194031142477, 45196.747207253844, 18621.528878394234, 0.0, 0.0, 0.0, 193.0, 0.0, 159.0, 0.0, 5.0, 0.0, 0.0, 159.0, 5.0, 0.0, 1.681499066680167E9, 0.0, 2023-04-14 13:04:26.680
33.0, 33113.349451225935, 27247.96113347544, 21219.941523068133, 25887.991593836738, -7244.088619242742, 10407.843936424726, 45611.28265992197, 18770.302089488756, 0.0, 0.0, 0.0, 193.0, 0.0, 159.0, 0.0, 5.0, 0.0, 0.0, 159.0, 5.0, 0.0, 1.681499066680178E9, 0.0, 2023-04-14 13:04:26.680
34.0, 33123.81006763101, 27265.19432845048, 21999.659776647066, 26246.178298733033, -7237.696020328524, 10413.25305858291, 45923.96121310726, 18796.14070607909, 0.0, 0.0, 0.0, 193.0, 0.0, 159.0, 0.0, 5.0, 0.0, 0.0, 159.0, 5.0, 0.0, 1.681499066686642E9, 0.0, 2023-04-14 13:04:26.686
35.0, 33079.26304093159, 27215.126420870594, 21546.433454326805, 25811.995662688692, -7365.682109079613, 10299.080347905201, 45497.80285332237, 18632.458881432878, 0.0, 0.0, 0.0, 193.0, 0.0, 159.0, 0.0, 5.0, 0.0, 0.0, 159.0, 5.0, 0.0, 1.681499066686654E9, 0.0, 2023-04-14 13:04:26.686
36.0, 33083.286354933545, 27207.5715312447, 20802.612102343097, 25470.23748996705, -7367.045565491387, 10297.247504859866, 45193.34974209664, 18617.86319230356, 0.0, 0.0, 0.0, 193.0, 0.0, 159.0, 0.0, 5.0, 0.0, 0.0, 159.0, 5.0, 0.0, 1.681499066694741E9, 0.0, 2023-04-14 13:04:26.694
37.0, 33092.584680626955, 27220.80376396224, 21049.285954151866, 25774.15415932586, -7271.268340500395, 10383.324072757254, 45510.990382551005, 18740.171937963, 0.0, 0.0, 0.0, 193.0, 0.0, 159.0, 0.0, 5.0, 0.0, 0.0, 159.0, 5.0, 0.0, 1.681499066694761E9, 0.0, 2023-04-14 13:04:26.694
38.0, 33115.092887293446, 27263.7861685498, 21900.976824876885, 26153.731483665884, -7230.588165591737, 10412.806023693804, 45920.20612003877, 18797.593569468685, 0.0, 0.0, 0.0, 193.0, 0.0, 159.0, 0.0, 5.0, 0.0, 0.0, 159.0, 5.0, 0.0, 1.681499066702949E9, 0.0, 2023-04-14 13:04:26.702
39.0, 33118.870332106395, 27239.15454616005, 21696.637177066466, 25954.21981265781, -7338.010649443942, 10316.358246369153, 45609.78509304346, 18662.767846914274, 0.0, 0.0, 0.0, 193.0, 0.0, 159.0, 0.0, 5.0, 0.0, 0.0, 159.0, 5.0, 0.0, 1.681499066702964E9, 0.0, 2023-04-14 13:04:26.702
40.0, 33128.302768266534, 27219.037976150274, 20893.89662669857, 25575.58126158491, -7365.726812568523, 10302.723682251417, 45227.77142855781, 18625.64159937401, 0.0, 0.0, 0.0, 193.0, 0.0, 159.0, 0.0, 5.0, 0.0, 0.0, 159.0, 5.0, 0.0, 1.681499066709879E9, 0.0, 2023-04-14 13:04:26.709
41.0, 33134.29303578055, 27265.529604617313, 20934.777967307327, 25697.577082821976, -7269.368442221695, 10364.1462760146, 45432.80398044634, 18726.872650012094, 0.0, 0.0, 0.0, 193.0, 0.0, 159.0, 0.0, 5.0, 0.0, 0.0, 159.0, 5.0, 0.0, 1.681499066709894E9, 0.0, 2023-04-14 13:04:26.709
42.0, 33151.70504471124, 27281.511101902855, 21800.17045738345, 26121.097936761136, -7212.036217693832, 10420.718541230983, 45907.309163488055, 18820.481755790923, 0.0, 0.0, 0.0, 193.0, 0.0, 159.0, 0.0, 5.0, 0.0, 0.0, 159.0, 5.0, 0.0, 1.681499066717436E9, 0.0, 2023-04-14 13:04:26.717
43.0, 33129.53211421157, 27251.87268875512, 21850.551289385712, 26040.698711955396, -7311.501480519949, 10340.878110036625, 45720.582690308416, 18697.144829886536, 0.0, 0.0, 0.0, 193.0, 0.0, 159.0, 0.0, 5.0, 0.0, 0.0, 159.0, 5.0, 0.0, 1.681499066717452E9, 0.0, 2023-04-14 13:04:26.717
44.0, 33085.588584612444, 27201.648318964046, 20995.06062210329, 25602.336299697912, -7393.778251859934, 10282.60711224164, 45248.31268171223, 18596.517276348743, 0.0, 0.0, 0.0, 193.0, 0.0, 159.0, 0.0, 5.0, 0.0, 0.0, 159.0, 5.0, 0.0, 1.681499066725386E9, 0.0, 2023-04-14 13:04:26.725
45.0, 33089.67895384776, 27188.75136241333, 20801.628625587062, 25583.091447721894, -7330.947498196066, 10327.936449997003, 45320.66527851406, 18665.919442882474, 0.0, 0.0, 0.0, 193.0, 0.0, 159.0, 0.0, 5.0, 0.0, 0.0, 159.0, 5.0, 0.0, 1.681499066725399E9, 0.0, 2023-04-14 13:04:26.725
46.0, 33178.41537933533, 27292.195235752493, 21645.161109585897, 26049.19237484841, -7204.3472176012065, 10431.000343680424, 45850.08869768247, 18815.05028188828, 0.0, 0.0, 0.0, 193.0, 0.0, 159.0, 0.0, 5.0, 0.0, 0.0, 159.0, 5.0, 0.0, 1.681499066732344E9, 0.0, 2023-04-14 13:04:26.732
47.0, 33147.83819292047, 27284.90856706006, 21940.71822651842, 26073.68988677143, -7282.690081917058, 10334.172586700033, 45797.45033949022, 18710.265303881803, 0.0, 0.0, 0.0, 193.0, 0.0, 159.0, 0.0, 5.0, 0.0, 0.0, 159.0, 5.0, 0.0, 1.681499066739486E9, 0.0, 2023-04-14 13:04:26.739
48.0, 33147.324102798, 27238.90867697104, 21163.726885763037, 25653.007704378095, -7360.004765987965, 10274.51578074882, 45323.436894826526, 18605.7932502977, 0.0, 0.0, 0.0, 193.0, 0.0, 159.0, 0.0, 5.0, 0.0, 0.0, 159.0, 5.0, 0.0, 1.681499066739504E9, 0.0, 2023-04-14 13:04:26.739
49.0, 33111.673070391786, 27206.073964366195, 20783.568416067174, 25513.53281897698, -7309.713340963524, 10353.52919739833, 45281.50502222837, 18666.07590509366, 0.0, 0.0, 0.0, 193.0, 0.0, 159.0, 0.0, 5.0, 0.0, 0.0, 159.0, 5.0, 0.0, 1.681499066747033E9, 0.0, 2023-04-14 13:04:26.747
50.0, 33059.43704359973, 27215.215827848417, 21434.160641927796, 25855.693323098818, -7243.999212264921, 10390.610741449684, 45730.52921659103, 18765.630574897597, 0.0, 0.0, 0.0, 193.0, 0.0, 159.0, 0.0, 5.0, 0.0, 0.0, 159.0, 5.0, 0.0, 1.681499066747057E9, 0.0, 2023-04-14 13:04:26.747
51.0, 33223.43179266832, 27341.83846018773, 21999.838590602707, 26209.074402937225, -7264.249892741429, 10392.264770539376, 45869.80293629205, 18752.890080558074, 0.0, 0.0, 0.0, 193.0, 0.0, 159.0, 0.0, 5.0, 0.0, 0.0, 159.0, 5.0, 0.0, 1.681499066755042E9, 0.0, 2023-04-14 13:04:26.755
52.0, 33163.193841361266, 27239.422767093514, 21280.671212753205, 25737.676112374797, -7369.303091681372, 10306.501127064363, 45362.59715111222, 18612.990512012304, 0.0, 0.0, 0.0, 193.0, 0.0, 159.0, 0.0, 5.0, 0.0, 0.0, 159.0, 5.0, 0.0, 1.681499066755055E9, 0.0, 2023-04-14 13:04:26.755
53.0, 33087.01909625758, 27181.15176929853, 20720.268275769744, 25459.03926599494, -7331.796864485367, 10329.61283083115, 45202.960992212415, 18643.500643193798, 0.0, 0.0, 0.0, 193.0, 0.0, 159.0, 0.0, 5.0, 0.0, 0.0, 159.0, 5.0, 0.0, 1.681499066762185E9, 0.0, 2023-04-14 13:04:26.762
54.0, 33093.568157382986, 27237.23229613689, 21227.652874905216, 25758.95497309625, -7272.117706789698, 10369.197770261499, 45621.47505539359, 18747.726827588896, 0.0, 0.0, 0.0, 193.0, 0.0, 159.0, 0.0, 5.0, 0.0, 0.0, 159.0, 5.0, 0.0, 1.681499066762197E9, 0.0, 2023-04-14 13:04:26.762
55.0, 33279.22174682876, 27329.88027690414, 21986.092267762695, 26140.141623037056, -7231.6386975811365, 10408.045102124823, 45902.905869830356, 18784.473095473422, 0.0, 0.0, 0.0, 193.0, 0.0, 159.0, 0.0, 5.0, 0.0, 0.0, 159.0, 5.0, 0.0, 1.681499066769655E9, 0.0, 2023-04-14 13:04:26.769
56.0, 33181.2316991367, 27219.32854882819, 21455.05952299351, 25713.357414407423, -7345.8114082588445, 10309.496260821374, 45456.541533057876, 18637.331561724135, 0.0, 0.0, 0.0, 193.0, 0.0, 159.0, 0.0, 5.0, 0.0, 0.0, 159.0, 5.0, 0.0, 1.68149906676968E9, 0.0, 2023-04-14 13:04:26.769
57.0, 33198.487245856195, 27265.417845895034, 20829.389492200553, 25626.096204053905, -7321.246841102463, 10335.737208811905, 45234.29813793876, 18660.912652124483, 0.0, 0.0, 0.0, 193.0, 0.0, 159.0, 0.0, 5.0, 0.0, 0.0, 159.0, 5.0, 0.0, 1.68149906677779E9, 0.0, 2023-04-14 13:04:26.777
58.0, 33164.110262883936, 27295.480942187423, 21152.930993191123, 25934.818498470606, -7256.359726948706, 10391.616569950173, 45563.38287155424, 18757.628650382598, 0.0, 0.0, 0.0, 193.0, 0.0, 159.0, 0.0, 5.0, 0.0, 0.0, 159.0, 5.0, 0.0, 1.681499066777804E9, 0.0, 2023-04-14 13:04:26.777
59.0, 33183.735094515694, 27318.994977354407, 21981.01842177134, 26278.744790404417, -7209.66693278157, 10421.031465653357, 45930.33146027702, 18809.574104496733, 0.0, 0.0, 0.0, 193.0, 0.0, 159.0, 0.0, 5.0, 0.0, 0.0, 159.0, 5.0, 0.0, 1.681499066785728E9, 0.0, 2023-04-14 13:04:26.785
60.0, 33202.264690669144, 27254.398435878567, 21637.00272285971, 25913.718451704797, -7346.370201870228, 10318.101682436667, 45550.75413593699, 18652.93307935394, 0.0, 0.0, 0.0, 193.0, 0.0, 159.0, 0.0, 5.0, 0.0, 0.0, 159.0, 5.0, 0.0, 1.681499066785749E9, 0.0, 2023-04-14 13:04:26.785
61.0, 33219.408478666366, 27291.54703516329, 20878.831550935694, 25612.953378314185, -7353.522760095926, 10314.413644601542, 45218.495454608856, 18634.604648900586, 0.0, 0.0, 0.0, 193.0, 0.0, 159.0, 0.0, 5.0, 0.0, 0.0, 159.0, 5.0, 0.0, 1.681499066791878E9, 0.0, 2023-04-14 13:04:26.791
62.0, 33206.109190715455, 27287.367258950148, 21014.97602641297, 25732.334045449978, -7257.320851960284, 10374.986872075424, 45465.415175606635, 18740.84249029666, 0.0, 0.0, 0.0, 193.0, 0.0, 159.0, 0.0, 5.0, 0.0, 0.0, 159.0, 5.0, 0.0, 1.681499066791889E9, 0.0, 2023-04-14 13:04:26.791
63.0, 33099.26785221909, 27239.042787437775, 21844.069283493674, 26046.420758535955, -7246.524959388371, 10381.62534017865, 45884.21981146572, 18789.97162460943, 0.0, 0.0, 0.0, 193.0, 0.0, 159.0, 0.0, 5.0, 0.0, 0.0, 159.0, 5.0, 0.0, 1.681499066799337E9, 0.0, 2023-04-14 13:04:26.799
64.0, 33241.6484643994, 27306.723869648442, 21793.084954391117, 25984.61818511703, -7308.104015362742, 10332.205633187967, 45662.26698902452, 18690.394603061035, 0.0, 0.0, 0.0, 193.0, 0.0, 159.0, 0.0, 5.0, 0.0, 0.0, 159.0, 5.0, 0.0, 1.681499066807248E9, 0.0, 2023-04-14 13:04:26.807
65.0, 33289.2576800892, 27295.190369509506, 20981.761334152383, 25565.992363213583, -7341.050486689865, 10325.343647640188, 45247.351556700654, 18640.326695481148, 0.0, 0.0, 0.0, 193.0, 0.0, 159.0, 0.0, 5.0, 0.0, 0.0, 159.0, 5.0, 0.0, 1.681499066807268E9, 0.0, 2023-04-14 13:04:26.807
66.0, 33197.10143769997, 27285.668526371544, 20909.967530961934, 25639.775471660552, -7271.111878289209, 10377.110287798678, 45390.78270087036, 18721.821155765196, 0.0, 0.0, 0.0, 193.0, 0.0, 159.0, 0.0, 5.0, 0.0, 0.0, 159.0, 5.0, 0.0, 1.681499066815344E9, 0.0, 2023-04-14 13:04:26.815
67.0, 33224.23645546871, 27275.319668688735, 21743.21821251133, 25995.27996722221, -7230.6999243140135, 10382.675872168049, 45865.1761251898, 18791.916226377038, 0.0, 0.0, 0.0, 193.0, 0.0, 159.0, 0.0, 5.0, 0.0, 0.0, 159.0, 5.0, 0.0, 1.681499066815362E9, 0.0, 2023-04-14 13:04:26.815
68.0, 33246.90112434639, 27330.707291448987, 21946.82025275472, 26112.73838433485, -7286.266361029907, 10345.974307772436, 45769.57771415445, 18710.22060039289, 0.0, 0.0, 0.0, 193.0, 0.0, 159.0, 0.0, 5.0, 0.0, 0.0, 159.0, 5.0, 0.0, 1.681499066821965E9, 0.0, 2023-04-14 13:04:26.821
69.0, 33237.80396435308, 27278.7394855904, 21098.571550675817, 25637.383835003835, -7376.522705140437, 10289.93848442298, 45277.92874311552, 18602.82046828514, 0.0, 0.0, 0.0, 193.0, 0.0, 159.0, 0.0, 5.0, 0.0, 0.0, 159.0, 5.0, 0.0, 1.681499066821983E9, 0.0, 2023-04-14 13:04:26.821
70.0, 33223.70001360178, 27262.71328481594, 20822.79572758624, 25531.01188314103, -7314.16133811013, 10344.700258338484, 45306.40486555158, 18670.92623364046, 0.0, 0.0, 0.0, 193.0, 0.0, 159.0, 0.0, 5.0, 0.0, 0.0, 159.0, 5.0, 0.0, 1.681499066829935E9, 0.0, 2023-04-14 13:04:26.829
71.0, 33244.37537722294, 27287.188444994503, 21595.65199561739, 25969.597812843065, -7209.197546148008, 10413.007189393902, 45807.01688611709, 18798.979377624917, 0.0, 0.0, 0.0, 193.0, 0.0, 159.0, 0.0, 5.0, 0.0, 0.0, 159.0, 5.0, 0.0, 1.681499066829945E9, 0.0, 2023-04-14 13:04:26.829
72.0, 33306.46852331979, 27348.27576259086, 22029.40994851708, 26183.392248558077, -7255.756229848413, 10372.885808096626, 45851.11687792741, 18746.072798499205, 0.0, 0.0, 0.0, 193.0, 0.0, 159.0, 0.0, 5.0, 0.0, 0.0, 159.0, 5.0, 0.0, 1.681499066837843E9, 0.0, 2023-04-14 13:04:26.837
73.0, 33252.15378429339, 27279.92412804653, 21273.36219231632, 25761.4807202197, -7343.30801287985, 10341.57101411474, 45370.889648305136, 18643.12066353806, 0.0, 0.0, 0.0, 193.0, 0.0, 159.0, 0.0, 5.0, 0.0, 0.0, 159.0, 5.0, 0.0, 1.681499066837858E9, 0.0, 2023-04-14 13:04:26.837
74.0, 33258.546383207606, 27278.761837334852, 20820.515849651798, 25619.055404550483, -7312.484957275982, 10359.0947817677, 45292.457377011466, 18683.21969309088, 0.0, 0.0, 0.0, 193.0, 0.0, 159.0, 0.0, 5.0, 0.0, 0.0, 159.0, 5.0, 0.0, 1.681499066844623E9, 0.0, 2023-04-14 13:04:26.844
75.0, 33323.008814216715, 27348.052245146304, 21452.53377587006, 25987.38980142949, -7211.164499660075, 10396.444546752518, 45750.13169647833, 18794.86665664514, 0.0, 0.0, 0.0, 193.0, 0.0, 159.0, 0.0, 5.0, 0.0, 0.0, 159.0, 5.0, 0.0, 1.681499066844641E9, 0.0, 2023-04-14 13:04:26.844
76.0, 33284.005020142205, 27327.26512280287, 22058.221347119972, 26282.790456150826, -7242.546348875327, 10380.373642489152, 45915.2887362586, 18767.798694109762, 0.0, 0.0, 0.0, 193.0, 0.0, 159.0, 0.0, 5.0, 0.0, 0.0, 159.0, 5.0, 0.0, 1.681499066852654E9, 0.0, 2023-04-14 13:04:26.852
77.0, 33234.0935747735, 27290.83177934072, 21417.218019630673, 25772.09779883597, -7351.466399606037, 10291.100775134657, 45443.242245106965, 18629.284933720224, 0.0, 0.0, 0.0, 193.0, 0.0, 159.0, 0.0, 5.0, 0.0, 0.0, 159.0, 5.0, 0.0, 1.681499066852676E9, 0.0, 2023-04-14 13:04:26.852
78.0, 33268.06822634557, 27328.226247814448, 20841.615896417607, 25558.52688056551, -7298.068082102309, 10342.062752492757, 45276.922914615025, 18676.536521498743, 0.0, 0.0, 0.0, 193.0, 0.0, 159.0, 0.0, 5.0, 0.0, 0.0, 159.0, 5.0, 0.0, 1.681499066859638E9, 0.0, 2023-04-14 13:04:26.859
79.0, 33336.97865450128, 27377.08716119375, 21335.544745390984, 26012.02142381924, -7169.746717184391, 10441.460960085507, 45702.34366683289, 18822.269895347345, 0.0, 0.0, 0.0, 193.0, 0.0, 159.0, 0.0, 5.0, 0.0, 0.0, 159.0, 5.0, 0.0, 1.681499066867597E9, 0.0, 2023-04-14 13:04:26.867
80.0, 33364.35954145903, 27385.625527575678, 22121.454432184033, 26303.1081918607, -7178.41919403305, 10454.40262012513, 46016.072752007574, 18842.833500246226, 0.0, 0.0, 0.0, 193.0, 0.0, 159.0, 0.0, 5.0, 0.0, 0.0, 159.0, 5.0, 0.0, 1.681499066867615E9, 0.0, 2023-04-14 13:04:26.867
81.0, 33301.84171221754, 27331.087271104727, 21645.339923541538, 25833.83331702153, -7322.252669602951, 10343.940299027003, 45578.82792697286, 18681.543312256734, 0.0, 0.0, 0.0, 193.0, 0.0, 159.0, 0.0, 5.0, 0.0, 0.0, 159.0, 5.0, 0.0, 1.681499066874131E9, 0.0, 2023-04-14 13:04:26.874
82.0, 33282.105121863504, 27349.706274236, 20942.19874646649, 25681.550882047522, -7315.703608477546, 10351.294022952798, 45297.33005730272, 18683.68907972444, 0.0, 0.0, 0.0, 193.0, 0.0, 159.0, 0.0, 5.0, 0.0, 0.0, 159.0, 5.0, 0.0, 1.681499066874147E9, 0.0, 2023-04-14 13:04:26.874
83.0, 33355.41884367691, 27412.98406278897, 21232.369092985286, 25939.51236480622, -7184.968255158456, 10471.92638777809, 45626.481846151575, 18820.928790680027, 0.0, 0.0, 0.0, 193.0, 0.0, 159.0, 0.0, 5.0, 0.0, 0.0, 159.0, 5.0, 0.0, 1.681499066882137E9, 0.0, 2023-04-14 13:04:26.882
84.0, 33294.17506386937, 27378.674135050078, 22054.689771496032, 26322.665968259094, -7187.941037171011, 10488.1761059971, 46002.08055997855, 18858.59148008722, 0.0, 0.0, 0.0, 193.0, 0.0, 159.0, 0.0, 5.0, 0.0, 0.0, 159.0, 5.0, 0.0, 1.681499066882159E9, 0.0, 2023-04-14 13:04:26.882
85.0, 33316.996194958236, 27339.84915493121, 21813.98383545683, 25959.114844693526, -7297.598695468748, 10374.763354630872, 45667.13966931578, 18717.55197257423, 0.0, 0.0, 0.0, 193.0, 0.0, 159.0, 0.0, 5.0, 0.0, 0.0, 159.0, 5.0, 0.0, 1.681499066890151E9, 0.0, 2023-04-14 13:04:26.890
86.0, 33261.92149662036, 27315.463401730467, 21010.840953688737, 25608.214808489658, -7350.281757149906, 10368.080183038734, 45285.55068797478, 18670.903881896007, 0.0, 0.0, 0.0, 193.0, 0.0, 159.0, 0.0, 5.0, 0.0, 0.0, 159.0, 5.0, 0.0, 1.681499066890166E9, 0.0, 2023-04-14 13:04:26.890
87.0, 33307.92138670938, 27353.148442882117, 21066.273279937897, 25727.439013414267, -7250.8611978127, 10443.87494848668, 45508.91167031666, 18785.747144907375, 0.0, 0.0, 0.0, 193.0, 0.0, 159.0, 0.0, 5.0, 0.0, 0.0, 159.0, 5.0, 0.0, 1.681499066897214E9, 0.0, 2023-04-14 13:04:26.897
88.0, 33415.500332772775, 27447.070473083317, 21987.96981429694, 26197.3844405871, -7143.751638382869, 10519.155623812154, 46017.4585601638, 18907.45239346652, 0.0, 0.0, 0.0, 193.0, 0.0, 159.0, 0.0, 5.0, 0.0, 0.0, 159.0, 5.0, 0.0, 1.681499066897226E9, 0.0, 2023-04-14 13:04:26.897
89.0, 33403.13981808899, 27440.990798591472, 22012.422622731046, 26204.469943579432, -7247.977822777966, 10433.63784952615, 45819.578566500975, 18791.223322298923, 0.0, 0.0, 0.0, 193.0, 0.0, 159.0, 0.0, 5.0, 0.0, 0.0, 159.0, 5.0, 0.0, 1.681499066904897E9, 0.0, 2023-04-14 13:04:26.904
90.0, 33344.198267960346, 27405.94326328555, 21158.250708371488, 25763.984115598694, -7313.311971820828, 10376.86441860967, 45361.16663946708, 18710.064138181704, 0.0, 0.0, 0.0, 193.0, 0.0, 159.0, 0.0, 5.0, 0.0, 0.0, 159.0, 5.0, 0.0, 1.681499066904911E9, 0.0, 2023-04-14 13:04:26.904
91.0, 33344.17591621589, 27394.32035616879, 21025.570753284785, 25740.179507753794, -7234.723238315969, 10459.699983561039, 45471.94188498758, 18800.923979392526, 0.0, 0.0, 0.0, 193.0, 0.0, 159.0, 0.0, 5.0, 0.0, 0.0, 159.0, 5.0, 0.0, 1.681499066912753E9, 0.0, 2023-04-14 13:04:26.912
92.0, 33398.445951753376, 27422.729423371486, 21865.102275026118, 26216.606940818663, -7139.527158680816, 10535.405342031163, 45984.62384755896, 18925.624361708684, 0.0, 0.0, 0.0, 193.0, 0.0, 159.0, 0.0, 5.0, 0.0, 0.0, 159.0, 5.0, 0.0, 1.681499066912771E9, 0.0, 2023-04-14 13:04:26.912
93.0, 33413.15339960497, 27435.514621199924, 22138.933496348083, 26201.22894063341, -7221.356895131696, 10460.63875682816, 45914.864053113946, 18826.628485516132, 0.0, 0.0, 0.0, 193.0, 0.0, 159.0, 0.0, 5.0, 0.0, 0.0, 159.0, 5.0, 0.0, 1.681499066919916E9, 0.0, 2023-04-14 13:04:26.919
94.0, 33402.1339895885, 27441.504888713946, 21333.622495367825, 25772.366019769433, -7302.225506570996, 10396.668064197072, 45433.742753713464, 18724.637475566564, 0.0, 0.0, 0.0, 193.0, 0.0, 159.0, 0.0, 5.0, 0.0, 0.0, 159.0, 5.0, 0.0, 1.681499066927086E9, 0.0, 2023-04-14 13:04:26.927
95.0, 33372.562631674125, 27434.777013632898, 21013.59021825674, 25795.276557836125, -7241.696982586024, 10467.612501098216, 45439.5765590163, 18802.53330499331, 0.0, 0.0, 0.0, 193.0, 0.0, 159.0, 0.0, 5.0, 0.0, 0.0, 159.0, 5.0, 0.0, 1.681499066927104E9, 0.0, 2023-04-14 13:04:26.927
96.0, 33457.87924026004, 27489.270566614934, 21754.371732994525, 26239.226906207434, -7117.086007247688, 10567.256577879974, 45952.1467628654, 18948.266678841912, 0.0, 0.0, 0.0, 193.0, 0.0, 160.0, 0.0, 5.0, 0.0, 0.0, 160.0, 5.0, 0.0, 1.681499066934435E9, 0.0, 2023-04-14 13:04:26.934
97.0, 33427.05618465617, 27471.925612917617, 22244.098454010305, 26346.35881738172, -7174.284121308819, 10512.561859197838, 46031.13782777046, 18883.40191643261, 0.0, 0.0, 0.0, 193.0, 0.0, 159.0, 0.0, 5.0, 0.0, 0.0, 159.0, 5.0, 0.0, 1.68149906693445E9, 0.0, 2023-04-14 13:04:26.934
98.0, 33400.524663987715, 27416.403879690635, 21501.327634015994, 25856.229764965745, -7285.551105207337, 10420.472672041973, 45525.8989961027, 18746.31866768821, 0.0, 0.0, 0.0, 193.0, 0.0, 159.0, 0.0, 5.0, 0.0, 0.0, 159.0, 5.0, 0.0, 1.681499066942638E9, 0.0, 2023-04-14 13:04:26.942
99.0, 33410.62765248152, 27436.6769119116, 20999.59802622772, 25697.308861888512, -7254.169255992086, 10454.760248036415, 45410.22871854648, 18789.94927286497, 0.0, 0.0, 0.0, 193.0, 0.0, 159.0, 0.0, 5.0, 0.0, 0.0, 159.0, 5.0, 0.0, 1.681499066942649E9, 0.0, 2023-04-14 13:04:26.942
100.0, 33472.34081892262, 27496.043145184893, 21607.81134460108, 26163.119216337112, -7109.240544943875, 10573.827990749836, 45886.90202080036, 18954.972202178502, 0.0, 0.0, 0.0, 193.0, 0.0, 159.0, 0.0, 5.0, 0.0, 0.0, 159.0, 5.0, 0.0, 1.681499066949636E9, 0.0, 2023-04-14 13:04:26.949
101.0, 33434.007577181765, 27539.427881172644, 22290.03128886596, 26459.592754792306, -7132.486359177395, 10550.202196860577, 46104.13862516149, 18938.36485604821, 0.0, 0.0, 0.0, 193.0, 0.0, 159.0, 0.0, 5.0, 0.0, 0.0, 159.0, 5.0, 0.0, 1.681499066949653E9, 0.0, 2023-04-14 13:04:26.949
102.0, 33450.07848144513, 27466.896470415173, 21692.792677020156, 26021.43150823492, -7259.801895594824, 10459.07413471629, 45631.019250276004, 18788.3846507531, 0.0, 0.0, 0.0, 193.0, 0.0, 159.0, 0.0, 5.0, 0.0, 0.0, 159.0, 5.0, 0.0, 1.681499066957667E9, 0.0, 2023-04-14 13:04:26.957
103.0, 33486.176548740455, 27466.740008203986, 21086.389849947675, 25773.617717458932, -7212.840880494223, 10505.297542249864, 45430.99348914546, 18824.885049448618, 0.0, 0.0, 0.0, 193.0, 0.0, 159.0, 0.0, 5.0, 0.0, 0.0, 159.0, 5.0, 0.0, 1.681499066957687E9, 0.0, 2023-04-14 13:04:26.957
104.0, 33481.92971729395, 27497.026621940928, 21473.812636591512, 26019.844534378593, -7117.93537353699, 10570.13995291471, 45796.46686273419, 18933.827451923782, 0.0, 0.0, 0.0, 193.0, 0.0, 159.0, 0.0, 5.0, 0.0, 0.0, 159.0, 5.0, 0.0, 1.681499066965192E9, 0.0, 2023-04-14 13:04:26.965
105.0, 33534.411613275006, 27566.652305919208, 22295.4627627686, 26431.85423992327, -7087.045262699755, 10589.317749657363, 46149.669128616944, 18972.384211109187, 0.0, 0.0, 0.0, 193.0, 0.0, 159.0, 0.0, 5.0, 0.0, 0.0, 159.0, 5.0, 0.0, 1.681499066965209E9, 0.0, 2023-04-14 13:04:26.965
106.0, 33440.98132145182, 27484.554348534864, 21889.018641593295, 25963.987524984783, -7235.7514185609125, 10470.138248221667, 45737.61471958336, 18800.409889270057, 0.0, 0.0, 0.0, 193.0, 0.0, 159.0, 0.0, 5.0, 0.0, 0.0, 159.0, 5.0, 0.0, 1.681499066973069E9, 0.0, 2023-04-14 13:04:26.973
107.0, 33432.2417893698, 27472.886737929195, 21116.52000147343, 25671.514948787088, -7260.248930483929, 10478.676614603593, 45411.12278832469, 18784.786019895797, 0.0, 0.0, 0.0, 193.0, 0.0, 159.0, 0.0, 5.0, 0.0, 0.0, 159.0, 5.0, 0.0, 1.681499066973089E9, 0.0, 2023-04-14 13:04:26.973
108.0, 33513.66919442048, 27546.692198120618, 21347.94996356368, 26091.146599191023, -7112.570954867716, 10587.775479289947, 45723.19784440969, 18938.029579881382, 0.0, 0.0, 0.0, 193.0, 0.0, 159.0, 0.0, 5.0, 0.0, 0.0, 159.0, 5.0, 0.0, 1.681499066979248E9, 0.0, 2023-04-14 13:04:26.979
109.0, 33583.473692354404, 27595.284890566458, 22231.626180604242, 26490.125237718254, -7053.4282390389735, 10625.795796608425, 46163.393099712506, 19021.490993677497, 0.0, 0.0, 0.0, 193.0, 0.0, 160.0, 0.0, 5.0, 0.0, 0.0, 160.0, 5.0, 0.0, 1.681499066986756E9, 0.0, 2023-04-14 13:04:26.986
110.0, 33509.645880418524, 27545.954590553596, 22091.83837078075, 26186.72265848192, -7174.999377131388, 10525.324705281819, 45870.56289560353, 18878.797457074816, 0.0, 0.0, 0.0, 193.0, 0.0, 159.0, 0.0, 5.0, 0.0, 0.0, 159.0, 5.0, 0.0, 1.681499066986775E9, 0.0, 2023-04-14 13:04:26.986
111.0, 33496.301888978705, 27512.6951948041, 21263.907404411722, 25797.690546237296, -7232.823340037267, 10490.187762998077, 45457.10032666926, 18821.755805224875, 0.0, 0.0, 0.0, 193.0, 0.0, 159.0, 0.0, 5.0, 0.0, 0.0, 159.0, 5.0, 0.0, 1.681499066994833E9, 0.0, 2023-04-14 13:04:26.994
112.0, 33506.40487747251, 27508.560122079867, 21246.428340247672, 25950.844699245063, -7144.422190716528, 10575.414964606163, 45636.964814301115, 18927.41250126511, 0.0, 0.0, 0.0, 193.0, 0.0, 159.0, 0.0, 5.0, 0.0, 0.0, 159.0, 5.0, 0.0, 1.68149906699485E9, 0.0, 2023-04-14 13:04:26.994
113.0, 33547.97912215938, 27589.384030030255, 22103.6177401087, 26446.986370919512, -7067.331024090175, 10635.63056416876, 46120.03071546921, 19030.85637460427, 0.0, 0.0, 0.0, 193.0, 0.0, 159.0, 0.0, 5.0, 0.0, 0.0, 159.0, 5.0, 0.0, 1.681499067002816E9, 0.0, 2023-04-14 13:04:27.002
114.0, 33502.76154312629, 27552.056616789894, 22219.936218254115, 26375.03610551788, -7160.806019402268, 10564.32849935633, 45971.39161484142, 18923.232725051967, 0.0, 0.0, 0.0, 193.0, 0.0, 159.0, 0.0, 5.0, 0.0, 0.0, 159.0, 5.0, 0.0, 1.681499067002836E9, 0.0, 2023-04-14 13:04:27.002
115.0, 33437.717966761345, 27432.96652233202, 21338.94221054819, 25794.315432824547, -7272.6094451677145, 10475.569722124306, 45474.5346873444, 18807.04835737328, 0.0, 0.0, 0.0, 193.0, 0.0, 160.0, 0.0, 5.0, 0.0, 0.0, 160.0, 5.0, 0.0, 1.68149906700939E9, 0.0, 2023-04-14 13:04:27.009
116.0, 33532.39995627403, 27552.905983079196, 21167.23610964252, 25899.882721886963, -7166.952749127478, 10555.544263785394, 45573.23999085903, 18915.141393559148, 0.0, 0.0, 0.0, 193.0, 0.0, 159.0, 0.0, 5.0, 0.0, 0.0, 159.0, 5.0, 0.0, 1.681499067009401E9, 0.0, 2023-04-14 13:04:27.009
117.0, 33571.56021255973, 27598.45883827911, 21975.519892635333, 26334.959427709513, -7054.143494861543, 10641.978459594067, 46081.63041849499, 19042.859261376772, 0.0, 0.0, 0.0, 193.0, 0.0, 159.0, 0.0, 5.0, 0.0, 0.0, 159.0, 5.0, 0.0, 1.6814990670175E9, 0.0, 2023-04-14 13:04:27.017
118.0, 33545.676892480486, 27568.17222454217, 22313.32180658839, 26265.82548210925, -7134.654478389559, 10585.562656588872, 46063.03376710818, 18952.871138199705, 0.0, 0.0, 0.0, 193.0, 0.0, 159.0, 0.0, 5.0, 0.0, 0.0, 159.0, 5.0, 0.0, 1.681499067017518E9, 0.0, 2023-04-14 13:04:27.017
119.0, 33512.73042115336, 27517.657282073174, 21538.766805978634, 25943.89330671946, -7218.76409277488, 10517.076911577811, 45581.39837758522, 18851.84125326172, 0.0, 0.0, 0.0, 193.0, 0.0, 159.0, 0.0, 5.0, 0.0, 0.0, 159.0, 5.0, 0.0, 1.681499067025477E9, 0.0, 2023-04-14 13:04:27.025
120.0, 33528.08606959415, 27569.3568669983, 21150.22643211203, 25900.665032942896, -7158.302624023274, 10558.628804520227, 45537.85717938628, 18911.83333537976, 0.0, 0.0, 0.0, 193.0, 0.0, 159.0, 0.0, 5.0, 0.0, 0.0, 159.0, 5.0, 0.0, 1.681499067025497E9, 0.0, 2023-04-14 13:04:27.025
121.0, 33584.658334810534, 27596.581291744864, 21817.47070759186, 26287.19374980852, -7046.96858489139, 10650.002735853523, 46007.24381294773, 19040.33351425332, 0.0, 0.0, 0.0, 193.0, 0.0, 159.0, 0.0, 5.0, 0.0, 0.0, 159.0, 5.0, 0.0, 1.681499067032203E9, 0.0, 2023-04-14 13:04:27.032
122.0, 33547.73325297037, 27524.698081576596, 22358.4276268992, 26325.281122360364, -7119.052960759755, 10591.888200269723, 46117.43791311239, 18973.70296403205, 0.0, 0.0, 0.0, 193.0, 0.0, 159.0, 0.0, 5.0, 0.0, 0.0, 159.0, 5.0, 0.0, 1.681499067032223E9, 0.0, 2023-04-14 13:04:27.032
123.0, 33491.272746476265, 27530.956570024082, 21668.831606964068, 25935.71256824882, -7247.53078788886, 10482.521114649906, 45612.0649709779, 18819.788851712805, 0.0, 0.0, 0.0, 193.0, 0.0, 159.0, 0.0, 5.0, 0.0, 0.0, 159.0, 5.0, 0.0, 1.681499067038942E9, 0.0, 2023-04-14 13:04:27.038
124.0, 33509.19884552942, 27526.240351944012, 21156.775493237437, 25851.44649165231, -7176.161667843065, 10555.90189169668, 45479.42971938011, 18887.000547289914, 0.0, 0.0, 0.0, 193.0, 0.0, 159.0, 0.0, 5.0, 0.0, 0.0, 159.0, 5.0, 0.0, 1.68149906703896E9, 0.0, 2023-04-14 13:04:27.038
125.0, 33583.18311967649, 27580.845663648328, 21659.354467315017, 26220.540847842796, -7078.886875973568, 10622.353627962308, 45892.355846447455, 19007.498801648475, 0.0, 0.0, 0.0, 193.0, 0.0, 159.0, 0.0, 5.0, 0.0, 0.0, 159.0, 5.0, 0.0, 1.681499067047038E9, 0.0, 2023-04-14 13:04:27.047
126.0, 33595.05189598226, 27608.807695961917, 22374.85615907385, 26466.275926384442, -7083.267817886808, 10610.060168511889, 46149.44561117239, 19001.150906223167, 0.0, 0.0, 0.0, 193.0, 0.0, 159.0, 0.0, 5.0, 0.0, 0.0, 159.0, 5.0, 0.0, 1.681499067054991E9, 0.0, 2023-04-14 13:04:27.054
127.0, 33591.69913431396, 27597.207140589613, 21893.28782478426, 26063.989229677827, -7178.240380077408, 10517.076911577811, 45725.76829502205, 18861.273689421858, 0.0, 0.0, 0.0, 193.0, 0.0, 159.0, 0.0, 5.0, 0.0, 0.0, 159.0, 5.0, 0.0, 1.681499067055006E9, 0.0, 2023-04-14 13:04:27.055
128.0, 33532.176438829476, 27519.333662907324, 21155.792016481402, 25748.89668809136, -7216.126586929154, 10507.9797515845, 45422.075143107795, 18831.322351851744, 0.0, 0.0, 0.0, 193.0, 0.0, 159.0, 0.0, 5.0, 0.0, 0.0, 159.0, 5.0, 0.0, 1.681499067061633E9, 0.0, 2023-04-14 13:04:27.061
129.0, 33562.12777639959, 27604.829085448873, 21470.214005734208, 26030.975703117336, -7095.762443037324, 10596.805584049891, 45774.562153167986, 18965.544577305864, 0.0, 0.0, 0.0, 193.0, 0.0, 159.0, 0.0, 5.0, 0.0, 0.0, 159.0, 5.0, 0.0, 1.681499067061653E9, 0.0, 2023-04-14 13:04:27.061
130.0, 33645.83505938471, 27642.38001613379, 22358.89701353276, 26518.42254619867, -7031.501177728317, 10659.234006313563, 46198.01595187378, 19049.00599110198, 0.0, 0.0, 0.0, 193.0, 0.0, 159.0, 0.0, 5.0, 0.0, 0.0, 159.0, 5.0, 0.0, 1.681499067069729E9, 0.0, 2023-04-14 13:04:27.069
131.0, 33560.09376765416, 27522.574665853343, 22077.980289218463, 26256.43774943802, -7159.867246135145, 10535.293583308887, 45845.79716274705, 18893.236683992945, 0.0, 0.0, 0.0, 193.0, 0.0, 159.0, 0.0, 5.0, 0.0, 0.0, 159.0, 5.0, 0.0, 1.681499067069744E9, 0.0, 2023-04-14 13:04:27.069
132.0, 33575.583526561684, 27556.03522730294, 21272.78104696048, 25797.064697392547, -7203.564906545271, 10492.847620588258, 45469.90787624215, 18842.833500246226, 0.0, 0.0, 0.0, 193.0, 0.0, 159.0, 0.0, 5.0, 0.0, 0.0, 159.0, 5.0, 0.0, 1.681499067077808E9, 0.0, 2023-04-14 13:04:27.077
133.0, 33593.621384337115, 27591.015707375493, 21395.29095832002, 26064.659782011484, -7086.352358621641, 10625.10289253031, 45717.18522515121, 18977.882740245193, 0.0, 0.0, 0.0, 193.0, 0.0, 159.0, 0.0, 5.0, 0.0, 0.0, 159.0, 5.0, 0.0, 1.681499067077824E9, 0.0, 2023-04-14 13:04:27.077
134.0, 33613.08975375769, 27580.666849692687, 22259.945840829118, 26482.615051581273, -7047.259157569309, 10658.764619680003, 46161.984939811824, 19057.72317143955, 0.0, 0.0, 0.0, 193.0, 0.0, 159.0, 0.0, 5.0, 0.0, 0.0, 159.0, 5.0, 0.0, 1.681499067084754E9, 0.0, 2023-04-14 13:04:27.084
135.0, 33639.2412947704, 27644.503431857043, 22239.22577371905, 26270.29583100031, -7137.739019124391, 10561.892159210702, 45927.26927128664, 18928.26186755441, 0.0, 0.0, 0.0, 193.0, 0.0, 159.0, 0.0, 5.0, 0.0, 0.0, 159.0, 5.0, 0.0, 1.681499067084804E9, 0.0, 2023-04-14 13:04:27.084
136.0, 33550.12488962709, 27542.624180629755, 21392.049955373997, 25824.512639583667, -7186.912856926067, 10532.119635596233, 45474.981722233504, 18859.463198120975, 0.0, 0.0, 0.0, 193.0, 0.0, 159.0, 0.0, 5.0, 0.0, 0.0, 159.0, 5.0, 0.0, 1.681499067092307E9, 0.0, 2023-04-14 13:04:27.092
137.0, 33576.32113412871, 27605.633748249264, 21267.97542190259, 25715.704347575233, -7134.408609200551, 10566.85424647978, 45582.20304038561, 18926.429024509078, 0.0, 0.0, 0.0, 193.0, 0.0, 159.0, 0.0, 5.0, 0.0, 0.0, 159.0, 5.0, 0.0, 1.681499067092332E9, 0.0, 2023-04-14 13:04:27.092
138.0, 33712.37620262816, 27689.81041786795, 22153.395075010667, 26405.18860878809, -6993.346749943108, 10679.082355389877, 46111.849976998565, 19078.95732867209, 0.0, 0.0, 0.0, 193.0, 0.0, 159.0, 0.0, 5.0, 0.0, 0.0, 159.0, 5.0, 0.0, 1.681499067100299E9, 0.0, 2023-04-14 13:04:27.100
139.0, 33668.38796954012, 27642.13414694478, 22397.140848295792, 26531.520668449484, -7072.047242170244, 10619.827880838857, 46033.6635748939, 18992.724298563517, 0.0, 0.0, 0.0, 193.0, 0.0, 159.0, 0.0, 5.0, 0.0, 0.0, 159.0, 5.0, 0.0, 1.681499067100316E9, 0.0, 2023-04-14 13:04:27.100
140.0, 33667.38214103963, 27606.4160593052, 21569.254585415674, 25942.95453345234, -7148.51255995185, 10554.717249240548, 45541.67932768814, 18889.21336999099, 0.0, 0.0, 0.0, 193.0, 0.0, 159.0, 0.0, 5.0, 0.0, 0.0, 159.0, 5.0, 0.0, 1.681499067107629E9, 0.0, 2023-04-14 13:04:27.107
141.0, 33679.13915862312, 27602.213931347604, 21290.34951810235, 25955.784434769685, -7073.164829393009, 10618.598534893816, 45574.82696471536, 18977.726278034006, 0.0, 0.0, 0.0, 193.0, 0.0, 159.0, 0.0, 5.0, 0.0, 0.0, 159.0, 5.0, 0.0, 1.6814990671139E9, 0.0, 2023-04-14 13:04:27.113
142.0, 33751.469403680494, 27739.610104514373, 22039.088253866226, 26400.673556408117, -6965.340014140608, 10686.346672337851, 46082.88211618449, 19109.15453543121, 0.0, 0.0, 0.0, 193.0, 0.0, 159.0, 0.0, 5.0, 0.0, 0.0, 159.0, 5.0, 0.0, 1.681499067113918E9, 0.0, 2023-04-14 13:04:27.113
143.0, 33739.2653512079, 27708.742345421597, 22483.21741619318, 26521.44003170014, -7013.016285063778, 10648.102837574821, 46137.15215172197, 19048.000162601493, 0.0, 0.0, 0.0, 193.0, 0.0, 159.0, 0.0, 5.0, 0.0, 0.0, 159.0, 5.0, 0.0, 1.681499067121924E9, 0.0, 2023-04-14 13:04:27.121
144.0, 33739.42181341908, 27673.60540313785, 21769.436808757404, 26044.63261897953, -7086.620579555104, 10615.245773225519, 45677.62263746532, 18956.626231268197, 0.0, 0.0, 0.0, 193.0, 0.0, 159.0, 0.0, 5.0, 0.0, 0.0, 159.0, 5.0, 0.0, 1.681499067121945E9, 0.0, 2023-04-14 13:04:27.121
145.0, 33768.7696538889, 27733.999816656094, 21309.572018333914, 25996.39755444498, -7043.258195311809, 10657.356459779317, 45590.58494455635, 19006.917656292637, 0.0, 0.0, 0.0, 193.0, 0.0, 159.0, 0.0, 5.0, 0.0, 0.0, 159.0, 5.0, 0.0, 1.681499067130042E9, 0.0, 2023-04-14 13:04:27.130
146.0, 33771.98830509047, 27756.195098900214, 21912.063290126716, 26393.476294693508, -6936.126284137522, 10747.724562612124, 46046.73934540026, 19137.585954378363, 0.0, 0.0, 0.0, 193.0, 0.0, 159.0, 0.0, 5.0, 0.0, 0.0, 159.0, 5.0, 0.0, 1.681499067130057E9, 0.0, 2023-04-14 13:04:27.130
147.0, 33776.74922665945, 27760.508985580087, 22543.03068435558, 26609.841181020878, -6971.4867438658175, 10726.356294912852, 46235.05279243622, 19112.864925010792, 0.0, 0.0, 0.0, 193.0, 0.0, 159.0, 0.0, 5.0, 0.0, 0.0, 159.0, 5.0, 0.0, 1.681499067137062E9, 0.0, 2023-04-14 13:04:27.137
148.0, 33751.87173508069, 27739.990084170116, 21946.14970042106, 26167.388399528078, -7080.3173876187075, 10630.377904221763, 45786.02859807356, 18979.1791414236, 0.0, 0.0, 0.0, 193.0, 0.0, 159.0, 0.0, 5.0, 0.0, 0.0, 159.0, 5.0, 0.0, 1.681499067137078E9, 0.0, 2023-04-14 13:04:27.137
149.0, 33785.57816571929, 27732.77047071105, 21347.659390885758, 25920.401623296933, -7029.824796894169, 10673.382660553772, 45598.81038651591, 19016.66301687515, 0.0, 0.0, 0.0, 193.0, 0.0, 159.0, 0.0, 5.0, 0.0, 0.0, 159.0, 5.0, 0.0, 1.681499067144501E9, 0.0, 2023-04-14 13:04:27.144
150.0, 33825.565436549834, 27802.954948300714, 21775.27061406024, 26299.889540659136, -6903.358626766041, 10769.361051244861, 45994.30215290811, 19156.182605765178, 0.0, 0.0, 0.0, 193.0, 0.0, 159.0, 0.0, 5.0, 0.0, 0.0, 159.0, 5.0, 0.0, 1.681499067144519E9, 0.0, 2023-04-14 13:04:27.144
151.0, 33843.5362390919, 27827.78773639056, 22534.22409704019, 26547.8150901574, -6900.765824409226, 10760.867388351846, 46304.47731071441, 19167.045553570457, 0.0, 0.0, 0.0, 193.0, 0.0, 159.0, 0.0, 5.0, 0.0, 0.0, 159.0, 5.0, 0.0, 1.68149906715269E9, 0.0, 2023-04-14 13:04:27.152
152.0, 33837.16599192214, 27781.385514901343, 22136.966542836017, 26202.212417389444, -7000.5440116577165, 10686.167858382209, 45923.53652996261, 19041.853432876283, 0.0, 0.0, 0.0, 193.0, 0.0, 159.0, 0.0, 5.0, 0.0, 0.0, 159.0, 5.0, 0.0, 1.68149906715271E9, 0.0, 2023-04-14 13:04:27.152
153.0, 33839.356462878764, 27788.180445215756, 21421.33074061045, 26054.98147666234, -7001.639247136027, 10701.076471933899, 45632.44976192114, 19039.931182853124, 0.0, 0.0, 0.0, 193.0, 0.0, 159.0, 0.0, 5.0, 0.0, 0.0, 159.0, 5.0, 0.0, 1.681499067160771E9, 0.0, 2023-04-14 13:04:27.160
154.0, 33830.43811684109, 27805.324233212978, 21617.8025743726, 26170.741161196373, -6900.497603475762, 10776.401850748283, 45914.90875660286, 19149.79000685096, 0.0, 0.0, 0.0, 193.0, 0.0, 159.0, 0.0, 5.0, 0.0, 0.0, 159.0, 5.0, 0.0, 1.681499067160785E9, 0.0, 2023-04-14 13:04:27.160
155.0, 33881.35539071028, 27851.03355062408, 22502.97635829167, 26673.364838762864, -6849.177998206377, 10810.488261042627, 46354.232293871915, 19228.155222911268, 0.0, 0.0, 0.0, 193.0, 0.0, 159.0, 0.0, 5.0, 0.0, 0.0, 159.0, 5.0, 0.0, 1.681499067166787E9, 0.0, 2023-04-14 13:04:27.166
156.0, 33867.76553008146, 27824.166753788802, 22336.299399888445, 26476.37891487824, -6953.225368645832, 10722.9811815001, 46054.9200838709, 19096.4587445806, 0.0, 0.0, 0.0, 193.0, 0.0, 159.0, 0.0, 5.0, 0.0, 0.0, 159.0, 5.0, 0.0, 1.681499067174221E9, 0.0, 2023-04-14 13:04:27.174
157.0, 33881.69066687711, 27807.581759402965, 21526.54040176158, 26104.468238886388, -6981.165049214966, 10707.35731212584, 45659.78594538998, 19058.483130751032, 0.0, 0.0, 0.0, 193.0, 0.0, 159.0, 0.0, 5.0, 0.0, 0.0, 159.0, 5.0, 0.0, 1.681499067174236E9, 0.0, 2023-04-14 13:04:27.174
158.0, 33885.71398087907, 27848.060768611525, 21542.812471725043, 26202.90532146756, -6910.153557080455, 10767.036469821509, 45844.47840982419, 19146.906631816226, 0.0, 0.0, 0.0, 193.0, 0.0, 159.0, 0.0, 5.0, 0.0, 0.0, 159.0, 5.0, 0.0, 1.681499067182277E9, 0.0, 2023-04-14 13:04:27.182
159.0, 33901.76253339798, 27875.106379402445, 22421.884229407817, 26691.76032444958, -6836.526910844674, 10831.297735130518, 46327.320793547726, 19244.650810319283, 0.0, 0.0, 0.0, 193.0, 0.0, 159.0, 0.0, 5.0, 0.0, 0.0, 159.0, 5.0, 0.0, 1.681499067182294E9, 0.0, 2023-04-14 13:04:27.182
160.0, 33921.72264119657, 27857.157928604836, 22508.78781185005, 26562.20961358662, -6912.679304203904, 10773.764344902558, 46159.72741362183, 19138.100044500836, 0.0, 0.0, 0.0, 193.0, 0.0, 159.0, 0.0, 5.0, 0.0, 0.0, 159.0, 5.0, 0.0, 1.68149906718927E9, 0.0, 2023-04-14 13:04:27.189
161.0, 33897.158074040184, 27851.86056516893, 21669.23393836426, 26060.144729631513, -6993.6149708765715, 10699.377739355295, 45688.17266084822, 19039.23827877501, 0.0, 0.0, 0.0, 193.0, 0.0, 159.0, 0.0, 5.0, 0.0, 0.0, 159.0, 5.0, 0.0, 1.681499067189292E9, 0.0, 2023-04-14 13:04:27.189
162.0, 33904.33298401034, 27886.394010352375, 21488.76595363211, 26142.600314927142, -6913.975705382312, 10780.782792661525, 45772.952827567206, 19139.374093934788, 0.0, 0.0, 0.0, 193.0, 0.0, 159.0, 0.0, 5.0, 0.0, 0.0, 159.0, 5.0, 0.0, 1.681499067196815E9, 0.0, 2023-04-14 13:04:27.196
163.0, 33942.53211528446, 27920.078089246523, 22304.157591361713, 26661.33960024591, -6814.756311745205, 10883.354947966927, 46286.908839572534, 19275.47386592315, 0.0, 0.0, 0.0, 193.0, 0.0, 159.0, 0.0, 5.0, 0.0, 0.0, 159.0, 5.0, 0.0, 1.68149906719683E9, 0.0, 2023-04-14 13:04:27.196
164.0, 33951.42810957767, 27914.132525221412, 22623.675778350327, 26673.18602480722, -6888.1370887919775, 10806.643760996314, 46253.850609523135, 19180.925986877202, 0.0, 0.0, 0.0, 193.0, 0.0, 159.0, 0.0, 5.0, 0.0, 0.0, 159.0, 5.0, 0.0, 1.681499067204785E9, 0.0, 2023-04-14 13:04:27.204
165.0, 33917.07347834986, 27868.400856065855, 21813.93913196792, 26205.788696502295, -6983.601389360594, 10729.664353092236, 45757.217199470666, 19067.24501457751, 0.0, 0.0, 0.0, 193.0, 0.0, 159.0, 0.0, 5.0, 0.0, 0.0, 159.0, 5.0, 0.0, 1.681499067204801E9, 0.0, 2023-04-14 13:04:27.204
166.0, 33922.92963539715, 27887.958632464248, 21436.28405765105, 26145.729559150885, -6932.415894557941, 10788.807068920978, 45728.2940421455, 19140.536384646464, 0.0, 0.0, 0.0, 193.0, 0.0, 159.0, 0.0, 5.0, 0.0, 0.0, 159.0, 5.0, 0.0, 1.681499067212752E9, 0.0, 2023-04-14 13:04:27.212
167.0, 33998.9255665452, 27946.542554681608, 22145.013170839928, 26576.78295097148, -6780.088756095023, 10899.470555719205, 46234.762219758304, 19300.597226690916, 0.0, 0.0, 0.0, 193.0, 0.0, 159.0, 0.0, 5.0, 0.0, 0.0, 159.0, 5.0, 0.0, 1.681499067212767E9, 0.0, 2023-04-14 13:04:27.212
168.0, 33998.09855200035, 27942.116909279455, 22710.758174748204, 26756.781549070067, -6827.87678574047, 10853.828293541466, 46360.46843057495, 19247.154205698276, 0.0, 0.0, 0.0, 193.0, 0.0, 159.0, 0.0, 5.0, 0.0, 0.0, 159.0, 5.0, 0.0, 1.68149906721944E9, 0.0, 2023-04-14 13:04:27.219
169.0, 33954.847926479335, 27904.163647194346, 22011.50620120838, 26250.089854012713, -6944.396429585985, 10753.960699315156, 45868.75240430265, 19102.806640005903, 0.0, 0.0, 0.0, 193.0, 0.0, 159.0, 0.0, 5.0, 0.0, 0.0, 159.0, 5.0, 0.0, 1.681499067219461E9, 0.0, 2023-04-14 13:04:27.219
170.0, 33947.60596127581, 27889.076219687013, 21458.032305006065, 26067.476101812852, -6907.672513445916, 10795.646702724303, 45719.01806819654, 19137.228326467077, 0.0, 0.0, 0.0, 193.0, 0.0, 159.0, 0.0, 5.0, 0.0, 0.0, 159.0, 5.0, 0.0, 1.681499067226489E9, 0.0, 2023-04-14 13:04:27.226
171.0, 33979.88188026928, 27942.943923824303, 22006.767631383853, 26499.96000527859, -6789.118860854967, 10894.262599261117, 46170.36684398256, 19284.593377660916, 0.0, 0.0, 0.0, 193.0, 0.0, 159.0, 0.0, 5.0, 0.0, 0.0, 159.0, 5.0, 0.0, 1.681499067234963E9, 0.0, 2023-04-14 13:04:27.234
172.0, 34014.9294155752, 27992.721258726273, 22744.956343764825, 26852.134090916406, -6785.72139569776, 10887.62413115789, 46442.94636761503, 19297.44563072272, 0.0, 0.0, 0.0, 193.0, 0.0, 159.0, 0.0, 5.0, 0.0, 0.0, 159.0, 5.0, 0.0, 1.681499067234976E9, 0.0, 2023-04-14 13:04:27.234
173.0, 34014.281214986, 27948.353045982487, 22221.612599088265, 26422.757079929957, -6895.334350506587, 10801.502859771594, 46007.33321992555, 19154.193300508654, 0.0, 0.0, 0.0, 193.0, 0.0, 159.0, 0.0, 5.0, 0.0, 0.0, 159.0, 5.0, 0.0, 1.681499067242481E9, 0.0, 2023-04-14 13:04:27.242
174.0, 34003.708839858635, 27921.08391774701, 21556.469387587236, 26173.08809436418, -6886.3713009800085, 10807.291961585517, 45760.25703671659, 19160.652954656238, 0.0, 0.0, 0.0, 193.0, 0.0, 159.0, 0.0, 5.0, 0.0, 0.0, 159.0, 5.0, 0.0, 1.681499067242496E9, 0.0, 2023-04-14 13:04:27.242
175.0, 34015.041174297476, 27966.92734562485, 21879.966185088895, 26439.453833038075, -6783.396814274409, 10892.876791104889, 46107.31257287414, 19288.63904340733, 0.0, 0.0, 0.0, 193.0, 0.0, 159.0, 0.0, 5.0, 0.0, 0.0, 159.0, 5.0, 0.0, 1.681499067249005E9, 0.0, 2023-04-14 13:04:27.249
176.0, 34057.71065446266, 28014.670671781383, 22704.142058389432, 26786.956404084733, -6754.898340093892, 10917.061378605531, 46477.03277790937, 19331.10735787241, 0.0, 0.0, 0.0, 193.0, 0.0, 159.0, 0.0, 5.0, 0.0, 0.0, 159.0, 5.0, 0.0, 1.68149906724902E9, 0.0, 2023-04-14 13:04:27.249
177.0, 34018.30452898795, 27939.09942377799, 22377.560720152942, 26500.988185523533, -6878.972873565302, 10820.010104180588, 46109.99478220878, 19184.010527612034, 0.0, 0.0, 0.0, 193.0, 0.0, 159.0, 0.0, 5.0, 0.0, 0.0, 159.0, 5.0, 0.0, 1.681499067257107E9, 0.0, 2023-04-14 13:04:27.257
178.0, 34015.667023142225, 27951.661104161874, 21616.483821449736, 26169.712980951426, -6890.9534085933465, 10815.71856924517, 45776.842031102424, 19167.224367526098, 0.0, 0.0, 0.0, 193.0, 0.0, 159.0, 0.0, 5.0, 0.0, 0.0, 159.0, 5.0, 0.0, 1.681499067257128E9, 0.0, 2023-04-14 13:04:27.257
179.0, 34050.491041003595, 27988.697944724317, 21769.995602368785, 26428.99321663299, -6771.192761801811, 10917.128433838896, 46048.92981635688, 19295.59043593293, 0.0, 0.0, 0.0, 193.0, 0.0, 159.0, 0.0, 5.0, 0.0, 0.0, 159.0, 5.0, 0.0, 1.681499067265123E9, 0.0, 2023-04-14 13:04:27.265
180.0, 34086.298535621, 28035.323683658087, 22649.156767029377, 26861.231250909717, -6720.342543165987, 10953.11474241194, 46506.02299046791, 19368.88180600188, 0.0, 0.0, 0.0, 193.0, 0.0, 159.0, 0.0, 5.0, 0.0, 0.0, 159.0, 5.0, 0.0, 1.681499067265134E9, 0.0, 2023-04-14 13:04:27.265
181.0, 34074.58622152641, 28014.20128514782, 22581.699202263262, 26672.694286429203, -6819.316067614087, 10861.025555256076, 46262.47838288288, 19238.57113582744, 0.0, 0.0, 0.0, 193.0, 0.0, 159.0, 0.0, 5.0, 0.0, 0.0, 159.0, 5.0, 0.0, 1.681499067272145E9, 0.0, 2023-04-14 13:04:27.272
182.0, 34038.59991295337, 27964.2004328013, 21746.660381157446, 26248.86050806767, -6871.1721147503995, 10837.846796255923, 45838.4210870768, 19181.194207810666, 0.0, 0.0, 0.0, 193.0, 0.0, 159.0, 0.0, 5.0, 0.0, 0.0, 159.0, 5.0, 0.0, 1.681499067272156E9, 0.0, 2023-04-14 13:04:27.272
183.0, 34060.057587630465, 27988.96616565778, 21656.985182402754, 26293.049906855813, -6792.605732989995, 10887.825296857989, 45970.788117741125, 19266.264947207565, 0.0, 0.0, 0.0, 193.0, 0.0, 159.0, 0.0, 5.0, 0.0, 0.0, 159.0, 5.0, 0.0, 1.681499067279662E9, 0.0, 2023-04-14 13:04:27.279
184.0, 34103.822303273955, 28044.309084929122, 22516.007425309115, 26767.040999775054, -6696.403824854354, 10968.69390829729, 46478.15036513214, 19392.9769865247, 0.0, 0.0, 0.0, 193.0, 0.0, 159.0, 0.0, 5.0, 0.0, 0.0, 159.0, 5.0, 0.0, 1.681499067279674E9, 0.0, 2023-04-14 13:04:27.279
185.0, 34109.56670159897, 28039.88343952697, 22712.456907326807, 26775.82523534599, -6773.182067058333, 10904.946733110755, 46376.02524471584, 19299.68080516825, 0.0, 0.0, 0.0, 193.0, 0.0, 159.0, 0.0, 5.0, 0.0, 0.0, 159.0, 5.0, 0.0, 1.681499067286758E9, 0.0, 2023-04-14 13:04:27.286
186.0, 34080.12945415133, 27998.21978786228, 21883.38600199056, 26292.625223711162, -6848.932129017369, 10857.985718010154, 45899.01666629513, 19208.84331570188, 0.0, 0.0, 0.0, 193.0, 0.0, 159.0, 0.0, 5.0, 0.0, 0.0, 159.0, 5.0, 0.0, 1.681499067286774E9, 0.0, 2023-04-14 13:04:27.286
187.0, 34095.440399103216, 28010.893226968437, 21630.36425475648, 26301.76708719338, -6777.4288985048415, 10916.949619883255, 45938.8921784034, 19289.24254050762, 0.0, 0.0, 0.0, 193.0, 0.0, 159.0, 0.0, 5.0, 0.0, 0.0, 159.0, 5.0, 0.0, 1.681499067294965E9, 0.0, 2023-04-14 13:04:27.294
188.0, 34123.84946630591, 28043.97380876229, 22390.547083681475, 26759.95549678272, -6679.4612025572305, 10993.973731276243, 46432.23988202094, 19413.36177746794, 0.0, 0.0, 0.0, 193.0, 0.0, 159.0, 0.0, 5.0, 0.0, 0.0, 159.0, 5.0, 0.0, 1.681499067301447E9, 0.0, 2023-04-14 13:04:27.301
189.0, 34149.35280672942, 28071.13117827549, 22828.70833023886, 26856.492681085194, -6729.976145026225, 10939.524881783114, 46475.736376730965, 19348.273497614085, 0.0, 0.0, 0.0, 193.0, 0.0, 159.0, 0.0, 5.0, 0.0, 0.0, 159.0, 5.0, 0.0, 1.681499067301468E9, 0.0, 2023-04-14 13:04:27.301
190.0, 34116.42868714675, 28032.350901645532, 22070.537158314844, 26392.51516968193, -6824.188747905344, 10867.440505914748, 45980.086443434535, 19225.69653102118, 0.0, 0.0, 0.0, 193.0, 0.0, 159.0, 0.0, 5.0, 0.0, 0.0, 159.0, 5.0, 0.0, 1.681499067309559E9, 0.0, 2023-04-14 13:04:27.309
191.0, 34108.18089344274, 28023.49961084123, 21623.94930409781, 26265.87018559816, -6782.994482874213, 10917.7766344281, 45897.47439592772, 19276.05501127899, 0.0, 0.0, 0.0, 193.0, 0.0, 159.0, 0.0, 5.0, 0.0, 0.0, 159.0, 5.0, 0.0, 1.681499067309574E9, 0.0, 2023-04-14 13:04:27.309
192.0, 34161.86978362439, 28087.716172661327, 22252.323895969857, 26695.448362284704, -6655.142504589857, 11025.579097936046, 46374.438270859515, 19426.057568318556, 0.0, 0.0, 0.0, 193.0, 0.0, 159.0, 0.0, 5.0, 0.0, 0.0, 159.0, 5.0, 0.0, 1.681499067317389E9, 0.0, 2023-04-14 13:04:27.317
193.0, 34164.48493772566, 28091.426562240908, 22866.70629581288, 26922.452678972804, -6682.590446780974, 10988.095222484497, 46548.91598807764, 19398.587274382982, 0.0, 0.0, 0.0, 193.0, 0.0, 159.0, 0.0, 5.0, 0.0, 0.0, 159.0, 5.0, 0.0, 1.681499067317412E9, 0.0, 2023-04-14 13:04:27.317
194.0, 34139.406280446805, 28037.2682854257, 22238.331703940836, 26495.936691276635, -6793.030416134646, 10909.193564557263, 46076.73538645928, 19261.258156449578, 0.0, 0.0, 0.0, 193.0, 0.0, 159.0, 0.0, 5.0, 0.0, 0.0, 159.0, 5.0, 0.0, 1.681499067324501E9, 0.0, 2023-04-14 13:04:27.324
195.0, 34148.23521950665, 28050.74638733225, 21641.160147328395, 26285.96440386348, -6761.089773308012, 10935.322753825516, 45890.29948595756, 19292.77411613156, 0.0, 0.0, 0.0, 193.0, 0.0, 159.0, 0.0, 5.0, 0.0, 0.0, 159.0, 5.0, 0.0, 1.681499067324522E9, 0.0, 2023-04-14 13:04:27.324
196.0, 34209.70251675874, 28124.55184752367, 22105.919969787596, 26649.470823940137, -6624.520614686086, 11045.561557479092, 46310.266412528326, 19450.264507563654, 0.0, 0.0, 0.0, 193.0, 0.0, 159.0, 0.0, 5.0, 0.0, 0.0, 159.0, 5.0, 0.0, 1.681499067331912E9, 0.0, 2023-04-14 13:04:27.331
197.0, 34205.94742369025, 28129.625693515027, 22871.601327848595, 26960.607106758012, -6640.233891038167, 11032.172862550362, 46601.95667767009, 19450.689190708305, 0.0, 0.0, 0.0, 193.0, 0.0, 159.0, 0.0, 5.0, 0.0, 0.0, 159.0, 5.0, 0.0, 1.681499067331934E9, 0.0, 2023-04-14 13:04:27.331
198.0, 34187.46253102571, 28104.61409146954, 22437.77631971554, 26597.994756459568, -6747.924595823836, 10939.480178294203, 46193.61265821608, 19305.335796515443, 0.0, 0.0, 0.0, 193.0, 0.0, 159.0, 0.0, 5.0, 0.0, 0.0, 159.0, 5.0, 0.0, 1.681499067340081E9, 0.0, 2023-04-14 13:04:27.340
199.0, 34162.94266735824, 28055.574364134594, 21702.940369002863, 26280.1529503051, -6762.788505886616, 10943.011753918143, 45888.3325324455, 19293.221151020665, 0.0, 0.0, 0.0, 193.0, 0.0, 159.0, 0.0, 5.0, 0.0, 0.0, 159.0, 5.0, 0.0, 1.681499067340092E9, 0.0, 2023-04-14 13:04:27.340
200.0, 34207.31088010203, 28099.98728036729, 21974.849340301676, 26569.25041309004, -6633.260146768111, 11051.797694182122, 46221.86526320759, 19440.9885336147, 0.0, 0.0, 0.0, 193.0, 0.0, 159.0, 0.0, 5.0, 0.0, 0.0, 159.0, 5.0, 0.0, 1.681499067348062E9, 0.0, 2023-04-14 13:04:27.348
201.0, 34261.22328772823, 28172.652801591496, 22842.65581877897, 26983.897624480443, -6572.910436738782, 11092.947255724343, 46645.76609680249, 19519.42080490837, 0.0, 0.0, 0.0, 193.0, 0.0, 159.0, 0.0, 5.0, 0.0, 0.0, 159.0, 5.0, 0.0, 1.681499067348077E9, 0.0, 2023-04-14 13:04:27.348
202.0, 34336.39220433142, 28239.149241346033, 22684.696040713316, 26779.043886547555, -6583.236942677134, 11100.569200583603, 46401.282715950336, 19466.871853693945, 0.0, 0.0, 0.0, 193.0, 0.0, 159.0, 0.0, 5.0, 0.0, 0.0, 159.0, 5.0, 0.0, 1.681499067354201E9, 0.0, 2023-04-14 13:04:27.354
203.0, 34459.595019769076, 28344.872992619636, 21970.49075013289, 26519.33896772134, -6486.677406630208, 11209.198678636394, 46119.53897709119, 19548.299258744628, 0.0, 0.0, 0.0, 193.0, 0.0, 159.0, 0.0, 5.0, 0.0, 0.0, 159.0, 5.0, 0.0, 1.681499067361683E9, 0.0, 2023-04-14 13:04:27.361
204.0, 34643.48282140289, 28536.539201323892, 22134.463147457023, 26836.800794220067, -6235.779075119385, 11438.818149425764, 46459.84428642324, 19804.897285091556, 0.0, 0.0, 0.0, 193.0, 0.0, 159.0, 0.0, 5.0, 0.0, 0.0, 159.0, 5.0, 0.0, 1.681499067361702E9, 0.0, 2023-04-14 13:04:27.361
205.0, 34890.022562744925, 28791.080867180928, 23170.44415121605, 27474.786636207897, -5961.590225886134, 11699.12656535227, 47118.95252692134, 20106.22115209355, 0.0, 0.0, 0.0, 193.0, 0.0, 159.0, 0.0, 5.0, 0.0, 0.0, 159.0, 5.0, 0.0, 1.681499067369807E9, 0.0, 2023-04-14 13:04:27.369
206.0, 35105.18045487171, 28997.11924756995, 23391.033517245476, 27546.513384164977, -5825.53515738668, 11843.362372322366, 47133.83878872857, 20215.09649933535, 0.0, 0.0, 0.0, 193.0, 0.0, 159.0, 0.0, 5.0, 0.0, 0.0, 159.0, 5.0, 0.0, 1.68149906736982E9, 0.0, 2023-04-14 13:04:27.369
207.0, 35301.65228863386, 29176.15672065696, 22747.191518210355, 27317.542113964813, -5657.271225127128, 12041.421179940842, 46892.73052128917, 20370.46347504419, 0.0, 0.0, 0.0, 193.0, 0.0, 159.0, 0.0, 5.0, 0.0, 0.0, 159.0, 5.0, 0.0, 1.681499067376799E9, 0.0, 2023-04-14 13:04:27.376
208.0, 35587.24052753932, 29466.818805553772, 22825.22145810383, 27647.14093770277, -5323.134997264743, 12345.851939422124, 47231.20298757589, 20705.963159318348, 0.0, 0.0, 0.0, 193.0, 0.0, 159.0, 0.0, 5.0, 0.0, 0.0, 159.0, 5.0, 0.0, 1.681499067376812E9, 0.0, 2023-04-14 13:04:27.376
209.0, 35858.65776046011, 29751.356512469833, 23851.72532221381, 28380.546376770304, -4990.563391514229, 12658.642251329691, 47956.22652247269, 21066.273279937897, 0.0, 0.0, 0.0, 193.0, 0.0, 159.0, 0.0, 5.0, 0.0, 0.0, 159.0, 5.0, 0.0, 1.681499067384354E9, 0.0, 2023-04-14 13:04:27.384
210.0, 36077.66015263321, 29965.955610985235, 24332.421938469644, 28583.61197514677, -4845.05353511018, 12814.657427627735, 48119.461312229796, 21204.0047292715, 0.0, 0.0, 0.0, 193.0, 0.0, 159.0, 0.0, 5.0, 0.0, 0.0, 159.0, 5.0, 0.0, 1.681499067384365E9, 0.0, 2023-04-14 13:04:27.384
211.0, 36260.63153274435, 30132.38670019945, 23722.21931483976, 28331.216076757442, -4724.264708073701, 12964.324708500471, 47837.7399251151, 21305.39224212077, 0.0, 0.0, 0.0, 193.0, 0.0, 159.0, 0.0, 5.0, 0.0, 0.0, 159.0, 5.0, 0.0, 1.681499067392283E9, 0.0, 2023-04-14 13:04:27.392
212.0, 36416.37848810893, 30287.686620674926, 23545.685237131744, 28463.024313810387, -4510.023237469582, 13172.46415286829, 47992.23518279019, 21532.17304136432, 0.0, 0.0, 0.0, 193.0, 0.0, 159.0, 0.0, 5.0, 0.0, 0.0, 159.0, 5.0, 0.0, 1.681499067392305E9, 0.0, 2023-04-14 13:04:27.392
213.0, 36575.34409467508, 30459.21390762495, 24390.715288009083, 29025.70712872829, -4280.515525402489, 13383.129344359559, 48616.51940542691, 21791.140352623504, 0.0, 0.0, 0.0, 193.0, 0.0, 159.0, 0.0, 5.0, 0.0, 0.0, 159.0, 5.0, 0.0, 1.681499067400409E9, 0.0, 2023-04-14 13:04:27.400
214.0, 36685.38173262856, 30573.967763658497, 25023.023786905265, 29283.959184164905, -4222.490396796513, 13440.61803109861, 48826.06700969541, 21839.196603202417, 0.0, 0.0, 0.0, 193.0, 0.0, 159.0, 0.0, 5.0, 0.0, 0.0, 159.0, 5.0, 0.0, 1.68149906740043E9, 0.0, 2023-04-14 13:04:27.400
215.0, 36748.36894850361, 30621.554627603848, 24430.523744883987, 28950.605267358456, -4233.129827157239, 13449.80459806974, 48445.372098132626, 21801.39980332849, 0.0, 0.0, 0.0, 193.0, 0.0, 159.0, 0.0, 5.0, 0.0, 0.0, 159.0, 5.0, 0.0, 1.681499067406857E9, 0.0, 2023-04-14 13:04:27.406
216.0, 36812.3396411347, 30679.445645743093, 23997.570454784687, 28872.28475478706, -4142.560558624335, 13540.262107880368, 48387.39167301556, 21899.121630087095, 0.0, 0.0, 0.0, 193.0, 0.0, 159.0, 0.0, 5.0, 0.0, 0.0, 159.0, 5.0, 0.0, 1.681499067406875E9, 0.0, 2023-04-14 13:04:27.406
217.0, 36900.11494161069, 30778.866205080296, 24623.575761744472, 29301.99704194034, -3971.3685478411376, 13692.477487621009, 48892.67520817223, 22098.00745225042, 0.0, 0.0, 0.0, 193.0, 0.0, 159.0, 0.0, 5.0, 0.0, 0.0, 159.0, 5.0, 0.0, 1.681499067413877E9, 0.0, 2023-04-14 13:04:27.413
218.0, 36978.79308209337, 30862.26056364305, 25386.418448259647, 29651.980656621537, -3918.7301896488893, 13743.99825859049, 49192.03212166216, 22158.80419716885, 0.0, 0.0, 0.0, 193.0, 0.0, 159.0, 0.0, 5.0, 0.0, 0.0, 159.0, 5.0, 0.0, 1.681499067422E9, 0.0, 2023-04-14 13:04:27.422
219.0, 37005.52576846192, 30873.034104470506, 24892.377840563997, 29297.79491398274, -3986.5677340707466, 13704.279208693411, 48793.83579419086, 22062.624640777667, 0.0, 0.0, 0.0, 193.0, 0.0, 159.0, 0.0, 5.0, 0.0, 0.0, 159.0, 5.0, 0.0, 1.681499067422017E9, 0.0, 2023-04-14 13:04:27.422
220.0, 37048.37406258274, 30909.73566886612, 24311.791278337394, 29111.62723441449, -3930.3083932767386, 13764.96419488957, 48619.38042871719, 22120.00156879444, 0.0, 0.0, 0.0, 193.0, 0.0, 159.0, 0.0, 5.0, 0.0, 0.0, 159.0, 5.0, 0.0, 1.68149906742993E9, 0.0, 2023-04-14 13:04:27.429
221.0, 37101.10182775281, 30968.45370155021, 24714.41325121084, 29440.510802329878, -3792.08520556512, 13871.112629307823, 49010.647715407344, 22267.99246883303, 0.0, 0.0, 0.0, 193.0, 0.0, 159.0, 0.0, 5.0, 0.0, 0.0, 159.0, 5.0, 0.0, 1.681499067429946E9, 0.0, 2023-04-14 13:04:27.429
222.0, 37162.412662793715, 31036.537115161078, 25561.901993978263, 29847.312551416464, -3731.3778676245056, 13933.004609704569, 49392.974304315365, 22341.75322553554, 0.0, 0.0, 0.0, 193.0, 0.0, 159.0, 0.0, 5.0, 0.0, 0.0, 159.0, 5.0, 0.0, 1.681499067436513E9, 0.0, 2023-04-14 13:04:27.436
223.0, 37194.84504399837, 31053.591496180477, 25269.988211391952, 29565.65821953514, -3804.5798307156365, 13890.782164428492, 49067.08587015699, 22245.97600054455, 0.0, 0.0, 0.0, 193.0, 0.0, 159.0, 0.0, 5.0, 0.0, 0.0, 159.0, 5.0, 0.0, 1.681499067436533E9, 0.0, 2023-04-14 13:04:27.436
224.0, 37227.12096299183, 31073.886880145896, 24582.515607180074, 29293.302213347222, -3774.6061414010696, 13926.097920667878, 48792.98642790156, 22273.468646224577, 0.0, 0.0, 0.0, 193.0, 0.0, 159.0, 0.0, 5.0, 0.0, 0.0, 159.0, 5.0, 0.0, 1.681499067444684E9, 0.0, 2023-04-14 13:04:27.444
225.0, 37279.446396761705, 31133.83425877503, 24781.602595043492, 29536.355082554233, -3650.017517807188, 14028.960648651202, 49089.079986701014, 22413.52467698153, 0.0, 0.0, 0.0, 193.0, 0.0, 159.0, 0.0, 5.0, 0.0, 0.0, 159.0, 5.0, 0.0, 1.681499067444694E9, 0.0, 2023-04-14 13:04:27.444
226.0, 37305.97791743016, 31175.4085034619, 25682.601414036923, 29989.156721729843, -3582.5823047855265, 14081.576655098994, 49559.62891097414, 22511.55942816251, 0.0, 0.0, 0.0, 193.0, 0.0, 159.0, 0.0, 5.0, 0.0, 0.0, 159.0, 5.0, 0.0, 1.681499067452636E9, 0.0, 2023-04-14 13:04:27.452
227.0, 37305.64264126332, 31162.26567772218, 25574.284860406504, 29777.575108715908, -3683.947465890344, 13998.182296536244, 49292.167936821934, 22387.641356902284, 0.0, 0.0, 0.0, 193.0, 0.0, 159.0, 0.0, 5.0, 0.0, 0.0, 159.0, 5.0, 0.0, 1.681499067452653E9, 0.0, 2023-04-14 13:04:27.452
228.0, 37277.03240836053, 31118.143334167402, 24772.840711217013, 29378.52941495531, -3726.2593181442403, 13970.24261596711, 48894.86567912885, 22336.56762082191, 0.0, 0.0, 0.0, 193.0, 0.0, 159.0, 0.0, 5.0, 0.0, 0.0, 159.0, 5.0, 0.0, 1.681499067459102E9, 0.0, 2023-04-14 13:04:27.459
229.0, 37303.87685345136, 31147.044139748115, 24743.42581551383, 29495.674907645574, -3626.86111055149, 14038.460140044706, 49068.51638180213, 22438.491575538108, 0.0, 0.0, 0.0, 193.0, 0.0, 159.0, 0.0, 5.0, 0.0, 0.0, 159.0, 5.0, 0.0, 1.681499067459114E9, 0.0, 2023-04-14 13:04:27.459
230.0, 37374.77658686359, 31237.211076880823, 25638.74729141561, 29996.51044565564, -3527.865234358935, 14133.253888279663, 49586.18278338704, 22570.635088757885, 0.0, 0.0, 0.0, 193.0, 0.0, 159.0, 0.0, 5.0, 0.0, 0.0, 159.0, 5.0, 0.0, 1.681499067467219E9, 0.0, 2023-04-14 13:04:27.467
231.0, 37372.9213920738, 31227.644530253954, 25788.861607177452, 29927.510610522106, -3611.5501655996045, 14063.337631623464, 49456.40855507953, 22466.319497384968, 0.0, 0.0, 0.0, 193.0, 0.0, 159.0, 0.0, 5.0, 0.0, 0.0, 159.0, 5.0, 0.0, 1.681499067467233E9, 0.0, 2023-04-14 13:04:27.467
232.0, 37349.362653417906, 31180.63881166444, 24953.778082582725, 29474.753674835407, -3677.9571983763217, 14019.662322957794, 48983.26682844959, 22385.227368501113, 0.0, 0.0, 0.0, 193.0, 0.0, 159.0, 0.0, 5.0, 0.0, 0.0, 159.0, 5.0, 0.0, 1.681499067474253E9, 0.0, 2023-04-14 13:04:27.474
233.0, 37365.657075125826, 31191.010021091704, 24738.530783478116, 29493.216215755492, -3590.919505467356, 14089.556227869538, 49047.1257623584, 22480.40109639181, 0.0, 0.0, 0.0, 193.0, 0.0, 159.0, 0.0, 5.0, 0.0, 0.0, 159.0, 5.0, 0.0, 1.681499067482391E9, 0.0, 2023-04-14 13:04:27.482
234.0, 37416.12731410591, 31261.775644037207, 25545.38405482579, 29960.79235801606, -3473.8857714993683, 14180.416069080362, 49569.19545760101, 22628.637865619407, 0.0, 0.0, 0.0, 193.0, 0.0, 159.0, 0.0, 5.0, 0.0, 0.0, 159.0, 5.0, 0.0, 1.681499067482409E9, 0.0, 2023-04-14 13:04:27.482
235.0, 37421.35762230845, 31268.212946440333, 25924.380233809978, 30037.458841497762, -3541.2092257987533, 14126.101330053965, 49572.5482192693, 22556.3746757954, 0.0, 0.0, 0.0, 193.0, 0.0, 159.0, 0.0, 5.0, 0.0, 0.0, 159.0, 5.0, 0.0, 1.681499067488812E9, 0.0, 2023-04-14 13:04:27.488
236.0, 37394.513177217625, 31221.006062150725, 25165.31499210775, 29581.013867975937, -3636.8970438119227, 14057.101494920433, 49082.39681510888, 22439.407997060778, 0.0, 0.0, 0.0, 193.0, 0.0, 159.0, 0.0, 5.0, 0.0, 0.0, 159.0, 5.0, 0.0, 1.681499067488831E9, 0.0, 2023-04-14 13:04:27.488
237.0, 37409.51119774714, 31234.014777423716, 24754.869908674948, 29487.11418951919, -3589.7795665001354, 14087.701033079748, 49013.68755265326, 22482.233939437145, 0.0, 0.0, 0.0, 193.0, 0.0, 159.0, 0.0, 5.0, 0.0, 0.0, 159.0, 5.0, 0.0, 1.681499067496788E9, 0.0, 2023-04-14 13:04:27.496
238.0, 37439.46253531725, 31267.52004236222, 25390.866445406253, 29891.121970548866, -3467.5602278185165, 14169.530769530627, 49481.82248852521, 22618.646635847883, 0.0, 0.0, 0.0, 193.0, 0.0, 159.0, 0.0, 5.0, 0.0, 0.0, 159.0, 5.0, 0.0, 1.681499067496805E9, 0.0, 2023-04-14 13:04:27.496
239.0, 37462.88716350641, 31289.223586228323, 26003.52776092622, 30115.48878139124, -3481.440661125262, 14167.295595085097, 49660.524685445394, 22615.271522435134, 0.0, 0.0, 0.0, 193.0, 0.0, 159.0, 0.0, 5.0, 0.0, 0.0, 159.0, 5.0, 0.0, 1.68149906750493E9, 0.0, 2023-04-14 13:04:27.504
240.0, 37440.803639984566, 31259.09343470257, 25383.44566624709, 29688.59281403933, -3588.2596478771748, 14101.000321030657, 49199.07292116558, 22495.466172154687, 0.0, 0.0, 0.0, 193.0, 0.0, 159.0, 0.0, 5.0, 0.0, 0.0, 159.0, 5.0, 0.0, 1.681499067504943E9, 0.0, 2023-04-14 13:04:27.504
241.0, 37459.93673323831, 31267.76591155123, 24807.48591512274, 29508.147181051634, -3551.2004555702756, 14134.103254568965, 49010.82652936298, 22522.914114345804, 0.0, 0.0, 0.0, 193.0, 0.0, 159.0, 0.0, 5.0, 0.0, 0.0, 159.0, 5.0, 0.0, 1.681499067512116E9, 0.0, 2023-04-14 13:04:27.512
242.0, 37495.833634833536, 31306.836760859107, 25267.10483635722, 29855.29212418701, -3449.7905909765473, 14221.833851556046, 49388.369844957575, 22644.038217549114, 0.0, 0.0, 0.0, 193.0, 0.0, 159.0, 0.0, 5.0, 0.0, 0.0, 159.0, 5.0, 0.0, 1.681499067512135E9, 0.0, 2023-04-14 13:04:27.512
243.0, 37528.42247824937, 31346.28758982272, 26046.28664806922, 30204.49342781227, -3431.4398087787404, 14255.29441300564, 49692.91236316114, 22694.128476873455, 0.0, 0.0, 0.0, 193.0, 0.0, 159.0, 0.0, 5.0, 0.0, 0.0, 159.0, 5.0, 0.0, 1.681499067519526E9, 0.0, 2023-04-14 13:04:27.519
244.0, 37536.491457997734, 31334.82114491715, 25592.948567026684, 29843.602161836883, -3493.823527553502, 14194.899999487401, 49305.78014919521, 22584.85079823146, 0.0, 0.0, 0.0, 193.0, 0.0, 159.0, 0.0, 5.0, 0.0, 0.0, 159.0, 5.0, 0.0, 1.681499067519539E9, 0.0, 2023-04-14 13:04:27.519
245.0, 37549.500173270724, 31337.838630418617, 24915.802468753158, 29589.99926924697, -3458.574826547483, 14220.76096782219, 49062.727279988205, 22604.408574629855, 0.0, 0.0, 0.0, 193.0, 0.0, 159.0, 0.0, 5.0, 0.0, 0.0, 159.0, 5.0, 0.0, 1.681499067527658E9, 0.0, 2023-04-14 13:04:27.527
246.0, 37574.310609616114, 31361.73264524134, 25205.928111783043, 29862.10940624588, -3346.905511248769, 14314.012445689732, 49396.46117645039, 22737.177936694377, 0.0, 0.0, 0.0, 193.0, 0.0, 159.0, 0.0, 5.0, 0.0, 0.0, 159.0, 5.0, 0.0, 1.681499067527674E9, 0.0, 2023-04-14 13:04:27.527
247.0, 37623.30563346215, 31411.398221421034, 26065.352686089598, 30279.975268837843, -3295.2729815570096, 14358.358306689062, 49809.76728317348, 22803.383803770997, 0.0, 0.0, 0.0, 193.0, 0.0, 159.0, 0.0, 5.0, 0.0, 0.0, 159.0, 5.0, 0.0, 1.681499067534586E9, 0.0, 2023-04-14 13:04:27.534
248.0, 37617.807104326144, 31393.315660156688, 25845.25505843819, 30017.90106509937, -3391.5642966704727, 14279.076669106087, 49508.331657449206, 22677.43172376534, 0.0, 0.0, 0.0, 193.0, 0.0, 159.0, 0.0, 5.0, 0.0, 0.0, 159.0, 5.0, 0.0, 1.681499067534643E9, 0.0, 2023-04-14 13:04:27.534
249.0, 37602.16088320743, 31363.252563864302, 25087.083886514174, 29672.946592920616, -3392.7042356376933, 14300.556695527637, 49176.38590054344, 22677.43172376534, 0.0, 0.0, 0.0, 193.0, 0.0, 159.0, 0.0, 5.0, 0.0, 0.0, 159.0, 5.0, 0.0, 1.681499067541002E9, 0.0, 2023-04-14 13:04:27.541
250.0, 37626.32311896361, 31379.524633827765, 25172.489902077905, 29860.790653323016, -3273.591789435362, 14384.487495957315, 49412.621487691584, 22801.059222347645, 0.0, 0.0, 0.0, 193.0, 0.0, 159.0, 0.0, 5.0, 0.0, 0.0, 159.0, 5.0, 0.0, 1.681499067549121E9, 0.0, 2023-04-14 13:04:27.549
251.0, 37666.60096247208, 31426.195076250446, 26062.670476754964, 30344.43769984695, -3189.8621547057814, 14449.57577581117, 49895.93325804869, 22904.59250266463, 0.0, 0.0, 0.0, 193.0, 0.0, 159.0, 0.0, 5.0, 0.0, 0.0, 159.0, 5.0, 0.0, 1.681499067549141E9, 0.0, 2023-04-14 13:04:27.549
252.0, 37653.48048847682, 31399.194168948434, 26063.78806397773, 30189.92009042741, -3288.4780512425964, 14370.674117883937, 49681.1776973221, 22777.522835436208, 0.0, 0.0, 0.0, 193.0, 0.0, 159.0, 0.0, 5.0, 0.0, 0.0, 159.0, 5.0, 0.0, 1.681499067557154E9, 0.0, 2023-04-14 13:04:27.557
253.0, 37631.82164809962, 31359.341008584623, 25256.823033907778, 29780.771408173016, -3327.8618249728474, 14351.026934507721, 49258.617968394516, 22723.856296999016, 0.0, 0.0, 0.0, 193.0, 0.0, 159.0, 0.0, 5.0, 0.0, 0.0, 159.0, 5.0, 0.0, 1.681499067557172E9, 0.0, 2023-04-14 13:04:27.557
254.0, 37631.374613210515, 31363.051398164203, 25148.372369810626, 29859.315438188965, -3238.0078122625127, 14422.440758042427, 49383.83244083315, 22823.32155982513, 0.0, 0.0, 0.0, 193.0, 0.0, 159.0, 0.0, 5.0, 0.0, 0.0, 159.0, 5.0, 0.0, 1.681499067564166E9, 0.0, 2023-04-14 13:04:27.564
255.0, 37684.281192336224, 31411.59938712113, 25987.501560151766, 30342.470746334882, -3111.6086973677516, 14555.657154996057, 49909.679580888704, 22993.79831478576, 0.0, 0.0, 0.0, 193.0, 0.0, 159.0, 0.0, 5.0, 0.0, 0.0, 159.0, 5.0, 0.0, 1.681499067564176E9, 0.0, 2023-04-14 13:04:27.564
0.0, 37684.303544080685, 31401.20582594941, 26256.661266882573, 30347.656351048514, -3187.6716837491613, 14495.977997300388, 49858.20351340813, 22911.834467868146, 0.0, 0.0, 0.0, 193.0, 0.0, 159.0, 0.0, 5.0, 0.0, 0.0, 159.0, 5.0, 0.0, 1.681499067571721E9, 0.0, 2023-04-14 13:04:27.571
1.0, 37645.34445349508, 31352.322560825654, 25438.967399474073, 29887.38922922483, -3258.9290450726803, 14449.307554877705, 49382.357225699096, 22818.918266167435, 0.0, 0.0, 0.0, 193.0, 0.0, 159.0, 0.0, 5.0, 0.0, 0.0, 159.0, 5.0, 0.0, 1.68149906757174E9, 0.0, 2023-04-14 13:04:27.571
2.0, 37660.74480542479, 31356.54704052771, 25142.15858485205, 29874.089941273924, -3178.038081888924, 14498.995482801854, 49407.05590332221, 22894.645976382017, 0.0, 0.0, 0.0, 193.0, 0.0, 159.0, 0.0, 5.0, 0.0, 0.0, 159.0, 5.0, 0.0, 1.681499067579725E9, 0.0, 2023-04-14 13:04:27.579
3.0, 37712.8020182612, 31415.77916333427, 25909.493972002743, 30343.342464368638, -3066.435821823576, 14576.779553506321, 49927.158645052754, 23027.728262868914, 0.0, 0.0, 0.0, 193.0, 0.0, 159.0, 0.0, 5.0, 0.0, 0.0, 159.0, 5.0, 0.0, 1.681499067579758E9, 0.0, 2023-04-14 13:04:27.579
4.0, 37676.391026543504, 31377.132997171047, 26380.489931164975, 30428.837886910187, -3133.915738334148, 14514.7758143873, 49996.18083193074, 22953.811043955215, 0.0, 0.0, 0.0, 193.0, 0.0, 159.0, 0.0, 5.0, 0.0, 0.0, 159.0, 5.0, 0.0, 1.681499067588025E9, 0.0, 2023-04-14 13:04:27.588
5.0, 37635.777906868214, 31317.38678424201, 25660.339076559434, 29958.89245973736, -3241.360573930809, 14421.099653375108, 49513.87489007413, 22818.582990000607, 0.0, 0.0, 0.0, 193.0, 0.0, 159.0, 0.0, 5.0, 0.0, 0.0, 159.0, 5.0, 0.0, 1.681499067588046E9, 0.0, 2023-04-14 13:04:27.588
6.0, 37558.08324314156, 31240.60854203803, 25129.820421912722, 29781.866643651327, -3284.1418128182668, 14399.08318508663, 49348.33787063812, 22796.946501367867, 0.0, 0.0, 0.0, 193.0, 0.0, 159.0, 0.0, 5.0, 0.0, 0.0, 159.0, 5.0, 0.0, 1.681499067594311E9, 0.0, 2023-04-14 13:04:27.594
7.0, 37453.49943083518, 31144.764261813674, 25615.7473463711, 30051.98747539371, -3307.6558479852497, 14363.70037361388, 49694.94637190657, 22805.216646816334, 0.0, 0.0, 0.0, 193.0, 0.0, 159.0, 0.0, 5.0, 0.0, 0.0, 159.0, 5.0, 0.0, 1.681499067594327E9, 0.0, 2023-04-14 13:04:27.594
8.0, 37369.79214785006, 31067.00254285366, 26198.300862109765, 30204.06874466762, -3432.7585617016034, 14231.936840049844, 49823.24538508003, 22677.29761329861, 0.0, 0.0, 0.0, 193.0, 0.0, 159.0, 0.0, 5.0, 0.0, 0.0, 159.0, 5.0, 0.0, 1.681499067601283E9, 0.0, 2023-04-14 13:04:27.601
9.0, 37244.73413762261, 30932.869724377364, 25540.53372627899, 29686.53645354944, -3643.7366776152467, 14032.626334741872, 49282.82490763962, 22429.506174267077, 0.0, 0.0, 0.0, 193.0, 0.0, 159.0, 0.0, 5.0, 0.0, 0.0, 159.0, 5.0, 0.0, 1.681499067609333E9, 0.0, 2023-04-14 13:04:27.609
10.0, 37130.20379903362, 30809.130467072784, 24811.9562640138, 29333.781222555786, -3744.565396853137, 13930.85884223686, 48957.78583977054, 22319.580295035877, 0.0, 0.0, 0.0, 193.0, 0.0, 159.0, 0.0, 5.0, 0.0, 0.0, 159.0, 5.0, 0.0, 1.681499067609345E9, 0.0, 2023-04-14 13:04:27.609
11.0, 37094.1057317383, 30780.386123703258, 25139.297561561772, 29568.072207936315, -3696.2856288296734, 13951.690668069205, 49268.98917782178, 22383.506284178053, 0.0, 0.0, 0.0, 193.0, 0.0, 159.0, 0.0, 5.0, 0.0, 0.0, 159.0, 5.0, 0.0, 1.68149906761732E9, 0.0, 2023-04-14 13:04:27.617
12.0, 37078.99595248651, 30769.076141008874, 25891.45611422731, 29857.28142944353, -3727.5110158337375, 13919.75002524257, 49561.886437164125, 22366.47425490311, 0.0, 0.0, 0.0, 193.0, 0.0, 159.0, 0.0, 5.0, 0.0, 0.0, 159.0, 5.0, 0.0, 1.681499067617338E9, 0.0, 2023-04-14 13:04:27.617
13.0, 36991.10889328824, 30674.282392773915, 25444.71179779909, 29401.10467685517, -3921.4123989835266, 13742.970078345548, 49106.40258865387, 22141.61570568272, 0.0, 0.0, 0.0, 193.0, 0.0, 159.0, 0.0, 5.0, 0.0, 0.0, 159.0, 5.0, 0.0, 1.681499067624057E9, 0.0, 2023-04-14 13:04:27.624
14.0, 36947.41123287812, 30615.25143566745, 24667.608698321426, 29115.29292050516, -3974.4083850870593, 13709.420109918132, 48751.59099717033, 22093.42534463708, 0.0, 0.0, 0.0, 193.0, 0.0, 159.0, 0.0, 5.0, 0.0, 0.0, 159.0, 5.0, 0.0, 1.681499067624074E9, 0.0, 2023-04-14 13:04:27.624
15.0, 36955.45786088203, 30633.378700420704, 24841.81819460609, 29327.366271897114, -3892.8021660807335, 13767.15466584619, 49012.14528228585, 22183.793447469885, 0.0, 0.0, 0.0, 193.0, 0.0, 159.0, 0.0, 5.0, 0.0, 0.0, 159.0, 5.0, 0.0, 1.681499067631984E9, 0.0, 2023-04-14 13:04:27.631
16.0, 36961.35872141823, 30654.21052625305, 25666.731675473653, 29700.863921745295, -3881.1345554750633, 13769.859226925282, 49402.29498175323, 22218.3939478867, 0.0, 0.0, 0.0, 193.0, 0.0, 158.0, 0.0, 5.0, 0.0, 0.0, 158.0, 5.0, 0.0, 1.681499067631995E9, 0.0, 2023-04-14 13:04:27.631
17.0, 36929.8651134807, 30609.328223386794, 25481.23454823906, 29435.436956338523, -4011.6240396051458, 13659.195740127057, 49091.56103033555, 22067.452617580013, 0.0, 0.0, 0.0, 193.0, 0.0, 159.0, 0.0, 5.0, 0.0, 0.0, 159.0, 5.0, 0.0, 1.681499067640284E9, 0.0, 2023-04-14 13:04:27.640
18.0, 36953.379148647684, 30622.96278750453, 24708.020652296622, 29086.392114924445, -4010.260583193372, 13673.2773391339, 48734.089581261826, 22055.31562034078, 0.0, 0.0, 0.0, 193.0, 0.0, 159.0, 0.0, 5.0, 0.0, 0.0, 159.0, 5.0, 0.0, 1.681499067640298E9, 0.0, 2023-04-14 13:04:27.640
19.0, 36997.45678871355, 30677.746913164487, 24718.771841379625, 29231.58904690612, -3901.6534568850348, 13756.58229071883, 48932.66247900278, 22167.186101339594, 0.0, 0.0, 0.0, 193.0, 0.0, 158.0, 0.0, 5.0, 0.0, 0.0, 158.0, 5.0, 0.0, 1.681499067646648E9, 0.0, 2023-04-14 13:04:27.646
20.0, 37015.76286742245, 30713.375593826247, 25564.427741101714, 29674.242994099022, -3835.201720619407, 13802.78334650795, 49412.59913594713, 22256.727189627552, 0.0, 0.0, 0.0, 193.0, 0.0, 159.0, 0.0, 5.0, 0.0, 0.0, 159.0, 5.0, 0.0, 1.681499067646662E9, 0.0, 2023-04-14 13:04:27.646
21.0, 37005.816341139835, 30692.968451138553, 25626.565590687467, 29528.017881872405, -3934.3764107676043, 13716.170336743635, 49241.36242167502, 22131.736234633474, 0.0, 0.0, 0.0, 193.0, 0.0, 159.0, 0.0, 5.0, 0.0, 0.0, 159.0, 5.0, 0.0, 1.681499067654742E9, 0.0, 2023-04-14 13:04:27.654
22.0, 37040.52860027893, 30708.637024001724, 24816.270150693676, 29128.86042938953, -3959.7009372354673, 13718.673732122628, 48824.23416665008, 22088.284443412358, 0.0, 0.0, 0.0, 193.0, 0.0, 159.0, 0.0, 5.0, 0.0, 0.0, 159.0, 5.0, 0.0, 1.68149906765476E9, 0.0, 2023-04-14 13:04:27.654
23.0, 37197.19197716618, 30872.96704923714, 24713.675643643815, 29272.425684025966, -3754.5119231357485, 13905.355501813354, 49014.760436387114, 22295.015727879494, 0.0, 0.0, 0.0, 193.0, 0.0, 158.0, 0.0, 5.0, 0.0, 0.0, 158.0, 5.0, 0.0, 1.68149906766258E9, 0.0, 2023-04-14 13:04:27.662
24.0, 37389.81931088201, 31077.597269725477, 25638.5014222266, 29891.569005437974, -3498.4950421446615, 14144.206243062765, 49663.09513605775, 22580.156931895846, 0.0, 0.0, 0.0, 193.0, 0.0, 159.0, 0.0, 5.0, 0.0, 0.0, 159.0, 5.0, 0.0, 1.681499067669645E9, 0.0, 2023-04-14 13:04:27.669
25.0, 37412.12635184841, 31099.166703124847, 26009.808601118162, 29977.287945424076, -3543.0420688440886, 14117.451204949763, 49685.335121790784, 22530.4690039717, 0.0, 0.0, 0.0, 193.0, 0.0, 159.0, 0.0, 5.0, 0.0, 0.0, 159.0, 5.0, 0.0, 1.681499067669658E9, 0.0, 2023-04-14 13:04:27.669
26.0, 37370.86503158391, 31045.81308911003, 25229.397443461115, 29489.97521280947, -3663.6520819249254, 14024.177375337766, 49193.37322632947, 22388.758944125053, 0.0, 0.0, 0.0, 193.0, 0.0, 159.0, 0.0, 5.0, 0.0, 0.0, 159.0, 5.0, 0.0, 1.681499067676242E9, 0.0, 2023-04-14 13:04:27.676
27.0, 37312.57168204447, 30985.79865524753, 24818.684139094847, 29395.203816318968, -3676.3478727755396, 13998.875200614359, 49120.03715277161, 22382.254586488558, 0.0, 0.0, 0.0, 193.0, 0.0, 159.0, 0.0, 5.0, 0.0, 0.0, 159.0, 5.0, 0.0, 1.681499067676254E9, 0.0, 2023-04-14 13:04:27.676
28.0, 37286.66601022077, 30976.14270164284, 25441.493146597524, 29768.656762678238, -3626.570537873571, 14029.720607962681, 49577.689120494026, 22461.849148493904, 0.0, 0.0, 0.0, 193.0, 0.0, 159.0, 0.0, 5.0, 0.0, 0.0, 159.0, 5.0, 0.0, 1.681499067684286E9, 0.0, 2023-04-14 13:04:27.684
29.0, 37238.25213173057, 30935.84250638992, 25946.195536398358, 29883.00828731159, -3732.428399613905, 13936.245612650588, 49719.68975301859, 22365.356667680346, 0.0, 0.0, 0.0, 193.0, 0.0, 159.0, 0.0, 5.0, 0.0, 0.0, 159.0, 5.0, 0.0, 1.681499067684296E9, 0.0, 2023-04-14 13:04:27.684
30.0, 37108.29908946742, 30780.453178936623, 25186.593852829203, 29333.445946388954, -3951.028460386808, 13742.523043456442, 49212.97570621678, 22123.91312407412, 0.0, 0.0, 0.0, 193.0, 0.0, 159.0, 0.0, 5.0, 0.0, 0.0, 159.0, 5.0, 0.0, 1.681499067692346E9, 0.0, 2023-04-14 13:04:27.692
31.0, 36992.44999795556, 30670.12496830523, 24538.974408981136, 29027.830544451543, -4033.685211382534, 13656.871158703705, 48973.96850275618, 22038.97649514395, 0.0, 0.0, 0.0, 193.0, 0.0, 159.0, 0.0, 5.0, 0.0, 0.0, 159.0, 5.0, 0.0, 1.681499067692365E9, 0.0, 2023-04-14 13:04:27.692
32.0, 36948.35000614524, 30638.050215011863, 24964.171643754442, 29315.609254313622, -4015.200318717995, 13649.048048144346, 49251.68892761337, 22069.37486760317, 0.0, 0.0, 0.0, 193.0, 0.0, 159.0, 0.0, 5.0, 0.0, 0.0, 159.0, 5.0, 0.0, 1.681499067699261E9, 0.0, 2023-04-14 13:04:27.699
33.0, 36894.2587845634, 30592.698525512045, 25616.417898704756, 29525.93916963806, -4088.961075420508, 13572.672137340563, 49339.44187634491, 21994.697689377987, 0.0, 0.0, 0.0, 193.0, 0.0, 159.0, 0.0, 5.0, 0.0, 0.0, 159.0, 5.0, 0.0, 1.681499067699274E9, 0.0, 2023-04-14 13:04:27.699
34.0, 36811.825551012225, 30492.763876052366, 25072.219976451397, 29105.23463550027, -4255.213350679082, 13426.51408034731, 48777.89900039423, 21798.87405620504, 0.0, 0.0, 0.0, 193.0, 0.0, 159.0, 0.0, 5.0, 0.0, 0.0, 159.0, 5.0, 0.0, 1.681499067706971E9, 0.0, 2023-04-14 13:04:27.706
35.0, 36759.36600677562, 30433.710567201444, 24345.475357231542, 28782.49779731009, -4307.203508282127, 13377.474353012367, 48420.136978642586, 21746.54862243517, 0.0, 0.0, 0.0, 193.0, 0.0, 159.0, 0.0, 5.0, 0.0, 0.0, 159.0, 5.0, 0.0, 1.681499067706983E9, 0.0, 2023-04-14 13:04:27.706
36.0, 36738.13184954308, 30420.12070657262, 24614.143325584333, 29005.16587557386, -4244.529216829445, 13409.45969932791, 48693.02942669743, 21824.444451861913, 0.0, 0.0, 0.0, 193.0, 0.0, 159.0, 0.0, 5.0, 0.0, 0.0, 159.0, 5.0, 0.0, 1.681499067715292E9, 0.0, 2023-04-14 13:04:27.715
37.0, 36722.977366802384, 30412.96814834692, 25399.538922254913, 29342.587809871176, -4258.879036769752, 13385.476277527367, 49017.97908758868, 21822.879829750043, 0.0, 0.0, 0.0, 193.0, 0.0, 159.0, 0.0, 5.0, 0.0, 0.0, 159.0, 5.0, 0.0, 1.681499067715303E9, 0.0, 2023-04-14 13:04:27.715
38.0, 36668.34970335361, 30346.9634469704, 25079.39488642155, 29015.69354721231, -4407.518137397545, 13264.218063857326, 48645.174341818616, 21652.671295722877, 0.0, 0.0, 0.0, 193.0, 0.0, 159.0, 0.0, 5.0, 0.0, 0.0, 159.0, 5.0, 0.0, 1.681499067722039E9, 0.0, 2023-04-14 13:04:27.722
39.0, 36617.72300216234, 30289.51946372026, 24272.966298218525, 28626.75084194551, -4469.74539396112, 13218.799319124142, 48275.43178503893, 21590.376983925937, 0.0, 0.0, 0.0, 193.0, 0.0, 159.0, 0.0, 5.0, 0.0, 0.0, 159.0, 5.0, 0.0, 1.681499067728458E9, 0.0, 2023-04-14 13:04:27.728
40.0, 36603.99903106678, 30283.84212062861, 24352.784377668428, 28776.93221294072, -4415.408303190267, 13254.316241063625, 48496.55759293528, 21657.14164461394, 0.0, 0.0, 0.0, 193.0, 0.0, 159.0, 0.0, 5.0, 0.0, 0.0, 159.0, 5.0, 0.0, 1.681499067728474E9, 0.0, 2023-04-14 13:04:27.728
41.0, 36610.01165032526, 30295.28621378973, 25170.724114265933, 29183.06340969365, -4380.517230095534, 13274.34340409558, 48916.63627822832, 21710.11527897302, 0.0, 0.0, 0.0, 193.0, 0.0, 159.0, 0.0, 5.0, 0.0, 0.0, 159.0, 5.0, 0.0, 1.681499067737197E9, 0.0, 2023-04-14 13:04:27.737
42.0, 36562.447138124364, 30242.55844861966, 25076.53386313127, 28964.597459387478, -4522.853138786929, 13142.110483897983, 48633.59613819077, 21542.901878702865, 0.0, 0.0, 0.0, 193.0, 0.0, 159.0, 0.0, 5.0, 0.0, 0.0, 159.0, 5.0, 0.0, 1.681499067737212E9, 0.0, 2023-04-14 13:04:27.737
43.0, 36524.627986505984, 30194.88217769649, 24221.870210393696, 28523.12815465071, -4588.366101785434, 13091.729651895721, 48164.41067032942, 21463.352020186427, 0.0, 0.0, 0.0, 193.0, 0.0, 159.0, 0.0, 5.0, 0.0, 0.0, 159.0, 5.0, 0.0, 1.681499067744706E9, 0.0, 2023-04-14 13:04:27.744
44.0, 36507.95358514233, 30188.243709593262, 24102.780115935817, 28592.217396762062, -4531.346801679945, 13126.576021501545, 48257.61744470805, 21528.932038418297, 0.0, 0.0, 0.0, 193.0, 0.0, 159.0, 0.0, 5.0, 0.0, 0.0, 159.0, 5.0, 0.0, 1.681499067744721E9, 0.0, 2023-04-14 13:04:27.744
45.0, 36503.48323625127, 30202.347660344563, 24904.93952094788, 29016.945244901806, -4477.3226353314685, 13168.038507466139, 48714.84472928581, 21608.258379490184, 0.0, 0.0, 0.0, 193.0, 0.0, 159.0, 0.0, 5.0, 0.0, 0.0, 159.0, 5.0, 0.0, 1.681499067751672E9, 0.0, 2023-04-14 13:04:27.751
46.0, 36481.712637151795, 30175.54791874265, 25082.01004052282, 28931.58393282699, -4592.076491365015, 13066.025145772117, 48589.13851846916, 21469.945784800744, 0.0, 0.0, 0.0, 193.0, 0.0, 159.0, 0.0, 5.0, 0.0, 0.0, 159.0, 5.0, 0.0, 1.681499067751682E9, 0.0, 2023-04-14 13:04:27.751
47.0, 36443.37939541094, 30113.030089501157, 24250.256925851932, 28475.474235471993, -4689.999483823715, 12994.343101303948, 48103.61392541098, 21352.308553732462, 0.0, 0.0, 0.0, 193.0, 0.0, 159.0, 0.0, 5.0, 0.0, 0.0, 159.0, 5.0, 0.0, 1.681499067759286E9, 0.0, 2023-04-14 13:04:27.759
48.0, 36434.48340111773, 30105.0058132417, 23956.778521153752, 28446.90870605811, -4648.581701348031, 13025.792005752564, 48115.86268137249, 21398.621368243857, 0.0, 0.0, 0.0, 193.0, 0.0, 159.0, 0.0, 5.0, 0.0, 0.0, 159.0, 5.0, 0.0, 1.681499067759304E9, 0.0, 2023-04-14 13:04:27.759
49.0, 36445.16753496737, 30129.615083886994, 24668.011029721623, 28864.841623883443, -4573.077508578004, 13082.923064580329, 48583.26000967741, 21499.986529348676, 0.0, 0.0, 0.0, 193.0, 0.0, 159.0, 0.0, 5.0, 0.0, 0.0, 159.0, 5.0, 0.0, 1.681499067767273E9, 0.0, 2023-04-14 13:04:27.767
50.0, 36422.078182945035, 30103.664708574383, 25063.86042402511, 28927.940598480774, -4656.583625863031, 13007.374168321392, 48597.22984996198, 21406.95856892569, 0.0, 0.0, 0.0, 193.0, 0.0, 159.0, 0.0, 5.0, 0.0, 0.0, 159.0, 5.0, 0.0, 1.681499067767288E9, 0.0, 2023-04-14 13:04:27.767
51.0, 36376.97236263423, 30040.65514095487, 24274.28505114139, 28434.123508229677, -4775.718423809818, 12912.89334450881, 48069.08048022753, 21264.421494534196, 0.0, 0.0, 0.0, 193.0, 0.0, 159.0, 0.0, 5.0, 0.0, 0.0, 159.0, 5.0, 0.0, 1.681499067775197E9, 0.0, 2023-04-14 13:04:27.775
52.0, 36364.18716480579, 30023.55605644656, 23793.856655819018, 28307.009137512345, -4752.584368298575, 12933.680466852245, 47956.80766782852, 21296.719765272115, 0.0, 0.0, 0.0, 193.0, 0.0, 159.0, 0.0, 5.0, 0.0, 0.0, 159.0, 5.0, 0.0, 1.68149906777521E9, 0.0, 2023-04-14 13:04:27.775
53.0, 36399.12294138944, 30057.262487085165, 24385.172055384166, 28691.794418310456, -4655.711907829274, 13006.658912498822, 48401.16034760003, 21418.84969697591, 0.0, 0.0, 0.0, 193.0, 0.0, 159.0, 0.0, 5.0, 0.0, 0.0, 159.0, 5.0, 0.0, 1.681499067781184E9, 0.0, 2023-04-14 13:04:27.781
54.0, 36373.73135968821, 30054.0438358836, 25000.627338961047, 28902.43725805727, -4704.908097375404, 12964.436467222748, 48565.71389028, 21376.403734255284, 0.0, 0.0, 0.0, 193.0, 0.0, 159.0, 0.0, 5.0, 0.0, 0.0, 159.0, 5.0, 0.0, 1.681499067781223E9, 0.0, 2023-04-14 13:04:27.781
55.0, 36319.595434617455, 29995.012878777135, 24389.575349041865, 28475.340125005263, -4836.582223961619, 12862.758381695556, 48083.720872845755, 21220.05328179041, 0.0, 0.0, 0.0, 193.0, 0.0, 159.0, 0.0, 5.0, 0.0, 0.0, 159.0, 5.0, 0.0, 1.681499067789329E9, 0.0, 2023-04-14 13:04:27.789
56.0, 36291.32047788149, 29968.950744742247, 23746.180384895848, 28223.30185452722, -4839.19737806289, 12856.030506614508, 47848.66992815375, 21214.19712474312, 0.0, 0.0, 0.0, 193.0, 0.0, 159.0, 0.0, 5.0, 0.0, 0.0, 159.0, 5.0, 0.0, 1.681499067796821E9, 0.0, 2023-04-14 13:04:27.796
57.0, 36305.29031816606, 29990.855454308446, 24135.5477733073, 28513.24868360146, -4741.386144326466, 12920.515289368068, 48214.43387442039, 21328.258076698552, 0.0, 0.0, 0.0, 193.0, 0.0, 159.0, 0.0, 5.0, 0.0, 0.0, 159.0, 5.0, 0.0, 1.681499067796839E9, 0.0, 2023-04-14 13:04:27.796
58.0, 36323.23876896367, 30004.378259703906, 24905.654776770447, 28859.588963936447, -4751.243263631256, 12909.093547951406, 48523.98318338194, 21335.723559346625, 0.0, 0.0, 0.0, 193.0, 0.0, 159.0, 0.0, 5.0, 0.0, 0.0, 159.0, 5.0, 0.0, 1.681499067804078E9, 0.0, 2023-04-14 13:04:27.804
59.0, 36283.81029174451, 29943.380349085375, 24449.03098929298, 28474.736627904967, -4894.115614189579, 12785.398994135738, 48085.84428856901, 21157.84837697129, 0.0, 0.0, 0.0, 193.0, 0.0, 160.0, 0.0, 5.0, 0.0, 0.0, 160.0, 5.0, 0.0, 1.681499067804087E9, 0.0, 2023-04-14 13:04:27.804
60.0, 36252.629608229356, 29917.11704935039, 23689.026974323628, 28148.512917579763, -4913.405169654509, 12772.412630607205, 47759.35235731034, 21128.947571390578, 0.0, 0.0, 0.0, 193.0, 0.0, 159.0, 0.0, 5.0, 0.0, 0.0, 159.0, 5.0, 0.0, 1.68149906781202E9, 0.0, 2023-04-14 13:04:27.812
61.0, 36245.38764302583, 29926.616540743893, 23917.05947125667, 28376.098379623698, -4812.3752847165215, 12843.871157630821, 48060.92209350134, 21246.428340247672, 0.0, 0.0, 0.0, 193.0, 0.0, 159.0, 0.0, 5.0, 0.0, 0.0, 159.0, 5.0, 0.0, 1.681499067812033E9, 0.0, 2023-04-14 13:04:27.812
62.0, 36251.17674483976, 29935.62429375938, 24770.069094904557, 28782.274279865538, -4786.715482081829, 12866.222902086129, 48471.12130774514, 21302.464163597127, 0.0, 0.0, 0.0, 193.0, 0.0, 159.0, 0.0, 5.0, 0.0, 0.0, 159.0, 5.0, 0.0, 1.681499067822281E9, 0.0, 2023-04-14 13:04:27.822
63.0, 36221.717145647664, 29904.555368966507, 24537.275676402533, 28495.121418848208, -4925.676277360472, 12748.85389195131, 48122.70231517581, 21136.793033694394, 0.0, 0.0, 0.0, 193.0, 0.0, 159.0, 0.0, 5.0, 0.0, 0.0, 159.0, 5.0, 0.0, 1.681499067822292E9, 0.0, 2023-04-14 13:04:27.822
64.0, 36183.36155216236, 29854.91214453127, 23698.526465717136, 28103.98824262479, -4980.639216976073, 12704.105699551787, 47698.98029553656, 21074.655184108637, 0.0, 0.0, 0.0, 193.0, 0.0, 159.0, 0.0, 5.0, 0.0, 0.0, 159.0, 5.0, 0.0, 1.681499067827348E9, 0.0, 2023-04-14 13:04:27.827
65.0, 36188.793026064996, 29875.475749430152, 23714.731480447233, 28242.92668615898, -4907.571364351674, 12758.95688044511, 47886.8020041945, 21165.962060208567, 0.0, 0.0, 0.0, 193.0, 0.0, 159.0, 0.0, 5.0, 0.0, 0.0, 159.0, 5.0, 0.0, 1.681499067827364E9, 0.0, 2023-04-14 13:04:27.827
66.0, 36202.96403204966, 29908.48927599064, 24574.938365809725, 28695.59421486786, -4848.965090389859, 12808.264828713516, 48359.00495755732, 21252.485662995063, 0.0, 0.0, 0.0, 193.0, 0.0, 160.0, 0.0, 5.0, 0.0, 0.0, 160.0, 5.0, 0.0, 1.681499067834161E9, 0.0, 2023-04-14 13:04:27.834
67.0, 36171.00103747857, 29872.05593252849, 24614.97034012918, 28552.92303000963, -4963.629539445584, 12709.715987410067, 48156.632263258965, 21113.547219460874, 0.0, 0.0, 0.0, 193.0, 0.0, 159.0, 0.0, 5.0, 0.0, 0.0, 159.0, 5.0, 0.0, 1.681499067834176E9, 0.0, 2023-04-14 13:04:27.834
68.0, 36132.98072016009, 29828.358272118363, 23781.876120790974, 28106.603396726063, -5041.190092705499, 12655.758876294956, 47693.4594146561, 21023.313227094797, 0.0, 0.0, 0.0, 193.0, 0.0, 159.0, 0.0, 5.0, 0.0, 0.0, 159.0, 5.0, 0.0, 1.681499067842952E9, 0.0, 2023-04-14 13:04:27.842
69.0, 36122.36364154382, 29820.222237136633, 23601.76576397011, 28133.67135926144, -4977.487621007875, 12702.51872569546, 47772.85281096135, 21092.827152350805, 0.0, 0.0, 0.0, 193.0, 0.0, 159.0, 0.0, 5.0, 0.0, 0.0, 159.0, 5.0, 0.0, 1.681499067842962E9, 0.0, 2023-04-14 13:04:27.842
70.0, 36144.08953715438, 29849.212449695166, 24376.991316913525, 28580.28156522293, -4894.227372911856, 12765.148313659229, 48251.135438816, 21194.661700089182, 0.0, 0.0, 0.0, 193.0, 0.0, 159.0, 0.0, 5.0, 0.0, 0.0, 159.0, 5.0, 0.0, 1.681499067849093E9, 0.0, 2023-04-14 13:04:27.849
71.0, 36126.38695554578, 29823.2397226381, 24664.322991886496, 28568.971582528542, -4984.930751911492, 12681.619844629748, 48192.39505438746, 21090.726088372005, 0.0, 0.0, 0.0, 193.0, 0.0, 159.0, 0.0, 5.0, 0.0, 0.0, 159.0, 5.0, 0.0, 1.681499067857219E9, 0.0, 2023-04-14 13:04:27.857
72.0, 36089.2160045166, 29770.266088279022, 23870.143159644984, 28105.597568225574, -5090.520392718362, 12602.49466925796, 47695.091092001334, 20971.881863103135, 0.0, 0.0, 0.0, 193.0, 0.0, 159.0, 0.0, 5.0, 0.0, 0.0, 159.0, 5.0, 0.0, 1.681499067857231E9, 0.0, 2023-04-14 13:04:27.857
73.0, 36083.98569631406, 29773.28357378049, 23494.589149306914, 28027.634683565462, -5049.974328276436, 12629.78614923789, 47652.443963580605, 21015.557171768807, 0.0, 0.0, 0.0, 193.0, 0.0, 159.0, 0.0, 5.0, 0.0, 0.0, 159.0, 5.0, 0.0, 1.681499067863854E9, 0.0, 2023-04-14 13:04:27.863
74.0, 36107.47737973659, 29812.644995766284, 24168.762465567885, 28441.34312168874, -4960.544998710751, 12696.148478525696, 48120.7577134082, 21130.825117924825, 0.0, 0.0, 0.0, 193.0, 0.0, 159.0, 0.0, 5.0, 0.0, 0.0, 159.0, 5.0, 0.0, 1.681499067863865E9, 0.0, 2023-04-14 13:04:27.863
75.0, 36099.98954534406, 29806.52061778553, 24676.41528563682, 28573.732504097523, -5026.61675532064, 12637.475149330516, 48210.63407786299, 21059.74657055695, 0.0, 0.0, 0.0, 193.0, 0.0, 159.0, 0.0, 5.0, 0.0, 0.0, 159.0, 5.0, 0.0, 1.681499067871786E9, 0.0, 2023-04-14 13:04:27.871
76.0, 36061.87982104776, 29752.809375859426, 23975.576338240666, 28117.019309642234, -5143.605785799717, 12543.039029006843, 47714.02301955498, 20915.71192928695, 0.0, 0.0, 0.0, 193.0, 0.0, 159.0, 0.0, 5.0, 0.0, 0.0, 159.0, 5.0, 0.0, 1.681499067871797E9, 0.0, 2023-04-14 13:04:27.871
77.0, 36049.89928601972, 29740.202991986633, 23441.6825701812, 27952.979857084734, -5126.216128613488, 12559.065229781298, 47564.75807008244, 20937.23665919741, 0.0, 0.0, 0.0, 193.0, 0.0, 159.0, 0.0, 5.0, 0.0, 0.0, 159.0, 5.0, 0.0, 1.681499067879673E9, 0.0, 2023-04-14 13:04:27.879
78.0, 36062.21509721459, 29769.059094078435, 23953.962201352384, 28299.49895137536, -5033.098761212678, 12630.680219016102, 47982.556877441035, 21053.309268153822, 0.0, 0.0, 0.0, 193.0, 0.0, 159.0, 0.0, 5.0, 0.0, 0.0, 159.0, 5.0, 0.0, 1.681499067879692E9, 0.0, 2023-04-14 13:04:27.879
79.0, 36067.355998439314, 29775.98813485958, 24653.59415454795, 28576.258251220974, -5056.836313824215, 12612.26238158493, 48224.134531514, 21038.132433668667, 0.0, 0.0, 0.0, 193.0, 0.0, 159.0, 0.0, 5.0, 0.0, 0.0, 159.0, 5.0, 0.0, 1.681499067886942E9, 0.0, 2023-04-14 13:04:27.886
80.0, 36035.43770735714, 29721.65104408873, 24116.48173528692, 28160.13582469652, -5184.889457808668, 12511.321903624763, 47769.79062197097, 20879.412696291532, 0.0, 0.0, 0.0, 193.0, 0.0, 159.0, 0.0, 5.0, 0.0, 0.0, 159.0, 5.0, 0.0, 1.681499067886955E9, 0.0, 2023-04-14 13:04:27.886
81.0, 36019.32209960486, 29695.700668776117, 23420.44841294866, 27875.195786380267, -5194.143080013166, 12506.225705888952, 47496.428787282566, 20870.47199850941, 0.0, 0.0, 0.0, 193.0, 0.0, 159.0, 0.0, 5.0, 0.0, 0.0, 159.0, 5.0, 0.0, 1.681499067894347E9, 0.0, 2023-04-14 13:04:27.894
82.0, 36030.252102643506, 29717.046584730935, 23760.7090187918, 28144.221382644344, -5096.510660232385, 12581.551084703337, 47849.00520432058, 20990.29970053431, 0.0, 0.0, 0.0, 193.0, 0.0, 159.0, 0.0, 5.0, 0.0, 0.0, 159.0, 5.0, 0.0, 1.681499067894359E9, 0.0, 2023-04-14 13:04:27.894
83.0, 36038.902227747705, 29736.246733218046, 24582.96264206918, 28532.582942555302, -5080.596218180206, 12590.938817374566, 48213.87508080901, 21021.16745962709, 0.0, 0.0, 0.0, 193.0, 0.0, 159.0, 0.0, 5.0, 0.0, 0.0, 159.0, 5.0, 0.0, 1.681499067902351E9, 0.0, 2023-04-14 13:04:27.902
84.0, 36002.558291263376, 29687.676392516663, 24239.013998390914, 28196.792685603225, -5211.264516265931, 12480.163571854064, 47826.42994242072, 20859.251422792844, 0.0, 0.0, 0.0, 193.0, 0.0, 159.0, 0.0, 5.0, 0.0, 0.0, 159.0, 5.0, 0.0, 1.681499067902366E9, 0.0, 2023-04-14 13:04:27.902
85.0, 35970.90822111467, 29644.53752571792, 23462.15676810226, 27852.620524480408, -5243.406324792662, 12462.952728623477, 47472.53477245984, 20823.287465964255, 0.0, 0.0, 0.0, 193.0, 0.0, 159.0, 0.0, 5.0, 0.0, 0.0, 159.0, 5.0, 0.0, 1.681499067909398E9, 0.0, 2023-04-14 13:04:27.909
86.0, 35986.77795967793, 29656.16043283468, 23599.038851146564, 28039.525811615684, -5156.189817928054, 12524.822357275767, 47722.13670279225, 20921.635141567607, 0.0, 0.0, 0.0, 193.0, 0.0, 159.0, 0.0, 5.0, 0.0, 0.0, 159.0, 5.0, 0.0, 1.681499067915951E9, 0.0, 2023-04-14 13:04:27.915
87.0, 36005.93340467613, 29683.2060436256, 24445.722931113592, 28456.475252684984, -5114.34735230772, 12554.505473912415, 48149.34559456654, 20983.035383586335, 0.0, 0.0, 0.0, 193.0, 0.0, 159.0, 0.0, 5.0, 0.0, 0.0, 159.0, 5.0, 0.0, 1.681499067915967E9, 0.0, 2023-04-14 13:04:27.915
88.0, 35981.94998287559, 29655.378121778744, 24362.082703361833, 28254.25902059782, -5232.342211287286, 12452.46976047394, 47887.29374257252, 20838.39724521604, 0.0, 0.0, 0.0, 193.0, 0.0, 159.0, 0.0, 5.0, 0.0, 0.0, 159.0, 5.0, 0.0, 1.681499067924048E9, 0.0, 2023-04-14 13:04:27.924
89.0, 35947.483592925506, 29606.76307758845, 23540.834908584944, 27835.901419627837, -5288.512145103472, 12413.957704777446, 47464.01875782237, 20770.135017649536, 0.0, 0.0, 0.0, 193.0, 0.0, 159.0, 0.0, 5.0, 0.0, 0.0, 159.0, 5.0, 0.0, 1.681499067924066E9, 0.0, 2023-04-14 13:04:27.924
90.0, 35949.33878771529, 29613.692118369596, 23463.229651836118, 27907.561112351552, -5218.685295425093, 12461.566920467249, 47597.771596642924, 20845.527451697286, 0.0, 0.0, 0.0, 193.0, 0.0, 159.0, 0.0, 5.0, 0.0, 0.0, 159.0, 5.0, 0.0, 1.681499067932063E9, 0.0, 2023-04-14 13:04:27.932
91.0, 35973.56807870485, 29646.01274085197, 24292.725240317017, 28374.109074367178, -5149.171370169088, 12511.277200135852, 48076.098927986495, 20937.638990597607, 0.0, 0.0, 0.0, 193.0, 0.0, 159.0, 0.0, 5.0, 0.0, 0.0, 159.0, 5.0, 0.0, 1.681499067932079E9, 0.0, 2023-04-14 13:04:27.932
92.0, 35949.96463656004, 29615.077926525824, 24435.97757053108, 28283.942137234466, -5253.688127242104, 12415.052940255755, 47931.50549310511, 20809.094108235135, 0.0, 0.0, 0.0, 193.0, 0.0, 159.0, 0.0, 5.0, 0.0, 0.0, 159.0, 5.0, 0.0, 1.681499067939045E9, 0.0, 2023-04-14 13:04:27.939
93.0, 35908.25628140644, 29563.579507300798, 23596.6695662343, 27804.3631082014, -5342.469256218584, 12348.467093523395, 47439.83417032172, 20698.408269692456, 0.0, 0.0, 0.0, 193.0, 0.0, 159.0, 0.0, 5.0, 0.0, 0.0, 159.0, 5.0, 0.0, 1.681499067939055E9, 0.0, 2023-04-14 13:04:27.939
94.0, 35904.65765054913, 29564.98766720148, 23344.56424052289, 27792.740201084638, -5282.857153756279, 12395.942198746467, 47478.54739171832, 20764.39061932452, 0.0, 0.0, 0.0, 193.0, 0.0, 159.0, 0.0, 5.0, 0.0, 0.0, 159.0, 5.0, 0.0, 1.681499067946561E9, 0.0, 2023-04-14 13:04:27.946
95.0, 35930.56332237284, 29599.923443785126, 24103.137743847103, 28261.568041034705, -5193.338417212774, 12471.356984538674, 47971.246894746655, 20886.27468183931, 0.0, 0.0, 0.0, 193.0, 0.0, 159.0, 0.0, 5.0, 0.0, 0.0, 159.0, 5.0, 0.0, 1.681499067946583E9, 0.0, 2023-04-14 13:04:27.946
96.0, 35920.95207225705, 29587.071190723324, 24479.585823963385, 28313.155867237554, -5270.563694305861, 12399.764347048325, 47969.05642379003, 20794.118439450078, 0.0, 0.0, 0.0, 193.0, 0.0, 159.0, 0.0, 5.0, 0.0, 0.0, 159.0, 5.0, 0.0, 1.681499067954665E9, 0.0, 2023-04-14 13:04:27.954
97.0, 35884.25050786144, 29533.896390664147, 23710.574055978544, 27842.204611564233, -5375.371024056795, 12319.29806700922, 47465.33751074523, 20671.250900179257, 0.0, 0.0, 0.0, 193.0, 0.0, 159.0, 0.0, 5.0, 0.0, 0.0, 159.0, 5.0, 0.0, 1.681499067954684E9, 0.0, 2023-04-14 13:04:27.954
98.0, 35875.77919671288, 29522.184076569567, 23280.75001010299, 27740.43711905922, -5341.172855040176, 12345.181387088465, 47390.19094588649, 20719.553019947176, 0.0, 0.0, 0.0, 193.0, 0.0, 159.0, 0.0, 5.0, 0.0, 0.0, 159.0, 5.0, 0.0, 1.68149906796267E9, 0.0, 2023-04-14 13:04:27.962
99.0, 35897.415685345615, 29552.873021706706, 23897.63580532501, 28132.19614412739, -5247.586101005805, 12413.801242566258, 47841.02563155003, 20838.129024282578, 0.0, 0.0, 0.0, 193.0, 0.0, 159.0, 0.0, 5.0, 0.0, 0.0, 159.0, 5.0, 0.0, 1.681499067962681E9, 0.0, 2023-04-14 13:04:27.962
100.0, 35901.55075806985, 29556.628114775198, 24488.32535604541, 28326.45515518846, -5290.52380210445, 12367.287262354763, 47991.788147901076, 20793.58199758315, 0.0, 0.0, 0.0, 193.0, 0.0, 159.0, 0.0, 5.0, 0.0, 0.0, 159.0, 5.0, 0.0, 1.681499067968675E9, 0.0, 2023-04-14 13:04:27.968
101.0, 35861.22821107247, 29497.2618815019, 23841.711740697832, 27872.51357704563, -5410.932649485189, 12268.157275695477, 47504.028380397365, 20639.019684674702, 0.0, 0.0, 0.0, 193.0, 0.0, 159.0, 0.0, 5.0, 0.0, 0.0, 159.0, 5.0, 0.0, 1.681499067976249E9, 0.0, 2023-04-14 13:04:27.976
102.0, 35846.47605973197, 29475.759503335896, 23229.69862576707, 27655.99222850707, -5403.310704625929, 12279.131982223033, 47297.61002035261, 20646.820443489607, 0.0, 0.0, 0.0, 193.0, 0.0, 159.0, 0.0, 5.0, 0.0, 0.0, 159.0, 5.0, 0.0, 1.681499067976266E9, 0.0, 2023-04-14 13:04:27.976
103.0, 35868.87250767619, 29509.465933974498, 23675.191244505793, 27995.984613416746, -5305.2088982115865, 12357.631308750071, 47690.21841171008, 20768.59274728212, 0.0, 0.0, 0.0, 193.0, 0.0, 159.0, 0.0, 5.0, 0.0, 0.0, 159.0, 5.0, 0.0, 1.681499067984428E9, 0.0, 2023-04-14 13:04:27.984
104.0, 35871.95704841102, 29522.87698064768, 24420.756032557016, 28310.674823603014, -5312.763787837481, 12348.35533480112, 47974.55495292604, 20777.466389830875, 0.0, 0.0, 0.0, 193.0, 0.0, 159.0, 0.0, 5.0, 0.0, 0.0, 159.0, 5.0, 0.0, 1.681499067984444E9, 0.0, 2023-04-14 13:04:27.984
105.0, 35827.56648392278, 29467.556413120798, 23941.69109364642, 27913.998414754682, -5443.946176045678, 12241.13401664901, 47535.65609880163, 20616.55618149712, 0.0, 0.0, 0.0, 193.0, 0.0, 159.0, 0.0, 5.0, 0.0, 0.0, 159.0, 5.0, 0.0, 1.681499067991468E9, 0.0, 2023-04-14 13:04:27.991
106.0, 35804.45478015599, 29433.268837126358, 23218.16512562813, 27614.529742542476, -5457.491333185593, 12236.551909035672, 47241.954176658895, 20601.334643523056, 0.0, 0.0, 0.0, 193.0, 0.0, 159.0, 0.0, 5.0, 0.0, 0.0, 159.0, 5.0, 0.0, 1.681499067991483E9, 0.0, 2023-04-14 13:04:27.991
107.0, 35817.41879194007, 29450.859660012684, 23466.515358271048, 27855.99563789316, -5366.922064652689, 12303.048348790211, 47549.402421641644, 20707.4383744524, 0.0, 0.0, 0.0, 193.0, 0.0, 159.0, 0.0, 5.0, 0.0, 0.0, 159.0, 5.0, 0.0, 1.681499067998975E9, 0.0, 2023-04-14 13:04:27.998
108.0, 35827.47707694496, 29476.161834736093, 24296.435629896598, 28248.671084483994, -5346.067887075888, 12319.074549564666, 47936.847560029935, 20748.498529016797, 0.0, 0.0, 0.0, 193.0, 0.0, 159.0, 0.0, 5.0, 0.0, 0.0, 159.0, 5.0, 0.0, 1.681499067998988E9, 0.0, 2023-04-14 13:04:27.998
109.0, 35799.693858587016, 29437.560372061776, 24043.86091755163, 27942.161612768366, -5474.076327571432, 12208.589876722084, 47593.167137285134, 20590.158771295402, 0.0, 0.0, 0.0, 193.0, 0.0, 159.0, 0.0, 5.0, 0.0, 0.0, 159.0, 5.0, 0.0, 1.681499068007319E9, 0.0, 2023-04-14 13:04:28.007
110.0, 35778.504404843385, 29401.171732088536, 23237.07470143732, 27563.79128262893, -5507.603944254392, 12183.578274676594, 47208.11363555356, 20547.444587641312, 0.0, 0.0, 0.0, 193.0, 0.0, 159.0, 0.0, 5.0, 0.0, 0.0, 159.0, 5.0, 0.0, 1.681499068007331E9, 0.0, 2023-04-14 13:04:28.007
111.0, 35797.793960308314, 29421.91415094306, 23295.546864932403, 27740.504174292586, -5420.767417045524, 12245.023220184234, 47420.969298001444, 20643.154757398934, 0.0, 0.0, 0.0, 193.0, 0.0, 159.0, 0.0, 5.0, 0.0, 0.0, 159.0, 5.0, 0.0, 1.681499068014966E9, 0.0, 2023-04-14 13:04:28.014
112.0, 35818.53637916283, 29450.77025303486, 24134.988979695914, 28179.91711853947, -5365.335090796362, 12289.234970716832, 47872.6980534432, 20721.85524962607, 0.0, 0.0, 0.0, 193.0, 0.0, 159.0, 0.0, 5.0, 0.0, 0.0, 159.0, 5.0, 0.0, 1.681499068014986E9, 0.0, 2023-04-14 13:04:28.014
113.0, 35782.57242233425, 29412.01232814936, 24132.77615699484, 28019.766869517192, -5476.9597026061665, 12192.429565480896, 47656.221408393554, 20587.02952707166, 0.0, 0.0, 0.0, 193.0, 0.0, 159.0, 0.0, 5.0, 0.0, 0.0, 159.0, 5.0, 0.0, 1.681499068021598E9, 0.0, 2023-04-14 13:04:28.021
114.0, 35752.352863830674, 29368.985220072893, 23300.061917312374, 27580.845663648328, -5546.920662751278, 12147.368448658997, 47208.873594865036, 20502.09289814149, 0.0, 0.0, 0.0, 193.0, 0.0, 159.0, 0.0, 5.0, 0.0, 0.0, 159.0, 5.0, 0.0, 1.681499068021612E9, 0.0, 2023-04-14 13:04:28.021
115.0, 35748.55306727327, 29372.159167785547, 23142.683284602557, 27621.79405949045, -5484.402833509784, 12194.50827771524, 47298.36997966409, 20568.87991057395, 0.0, 0.0, 0.0, 193.0, 0.0, 159.0, 0.0, 5.0, 0.0, 0.0, 159.0, 5.0, 0.0, 1.681499068028583E9, 0.0, 2023-04-14 13:04:28.028
116.0, 35768.55787856077, 29397.52839774232, 23939.142994778515, 28066.996105551258, -5405.16589941572, 12255.170912166943, 47779.67009302021, 20670.490940867778, 0.0, 0.0, 0.0, 193.0, 0.0, 159.0, 0.0, 5.0, 0.0, 0.0, 159.0, 5.0, 0.0, 1.681499068028625E9, 0.0, 2023-04-14 13:04:28.028
117.0, 35762.187631391, 29381.323383012223, 24196.88096009266, 28052.735692588773, -5487.08504284442, 12182.147763031455, 47707.764531107496, 20575.652489143908, 0.0, 0.0, 0.0, 193.0, 0.0, 159.0, 0.0, 5.0, 0.0, 0.0, 159.0, 5.0, 0.0, 1.681499068036603E9, 0.0, 2023-04-14 13:04:28.036
118.0, 35721.798029160265, 29330.13788820957, 23395.43681090317, 27589.78636143045, -5577.609607888414, 12113.68436976485, 47221.144702571, 20470.219310548226, 0.0, 0.0, 0.0, 193.0, 0.0, 159.0, 0.0, 5.0, 0.0, 0.0, 159.0, 5.0, 0.0, 1.681499068044576E9, 0.0, 2023-04-14 13:04:28.044
119.0, 35721.50745648235, 29336.61989410161, 23072.118827357153, 27551.96720981207, -5527.675810775258, 12151.615280105505, 47214.886214123515, 20529.004398465684, 0.0, 0.0, 0.0, 193.0, 0.0, 159.0, 0.0, 5.0, 0.0, 0.0, 159.0, 5.0, 0.0, 1.681499068044592E9, 0.0, 2023-04-14 13:04:28.044
120.0, 35744.8873811826, 29378.261194021845, 23768.018039228686, 27975.666877706873, -5436.391286419784, 12219.56458324964, 47683.57994360685, 20645.23346963328, 0.0, 0.0, 0.0, 193.0, 0.0, 159.0, 0.0, 5.0, 0.0, 0.0, 159.0, 5.0, 0.0, 1.681499068051191E9, 0.0, 2023-04-14 13:04:28.051
121.0, 35741.17699160302, 29368.62759216161, 24218.18217255857, 28077.635535911984, -5497.433900527228, 12163.908739555925, 47732.06087733041, 20573.01498329818, 0.0, 0.0, 0.0, 193.0, 0.0, 159.0, 0.0, 5.0, 0.0, 0.0, 159.0, 5.0, 0.0, 1.681499068051206E9, 0.0, 2023-04-14 13:04:28.051
122.0, 35707.91759585352, 29318.023242714793, 23509.207190180685, 27620.676472267685, -5605.415177990816, 12079.083869348035, 47244.904606927, 20444.470100935712, 0.0, 0.0, 0.0, 193.0, 0.0, 159.0, 0.0, 5.0, 0.0, 0.0, 159.0, 5.0, 0.0, 1.681499068059174E9, 0.0, 2023-04-14 13:04:28.059
123.0, 35705.39184873007, 29307.808495498717, 23014.764251084835, 27483.995554923484, -5572.379299685872, 12105.235410360743, 47125.92627119139, 20482.37865953191, 0.0, 0.0, 0.0, 193.0, 0.0, 159.0, 0.0, 5.0, 0.0, 0.0, 159.0, 5.0, 0.0, 1.681499068059183E9, 0.0, 2023-04-14 13:04:28.059
124.0, 35729.26351180834, 29337.89394353556, 23556.034094814553, 27850.340646545967, -5474.389251993805, 12180.2255130083, 47553.85041878825, 20601.513457478697, 0.0, 0.0, 0.0, 193.0, 0.0, 159.0, 0.0, 5.0, 0.0, 0.0, 159.0, 5.0, 0.0, 1.681499068067459E9, 0.0, 2023-04-14 13:04:28.067
125.0, 35737.98069214591, 29352.556687898243, 24212.773050400385, 28105.530512992205, -5499.289095317018, 12157.113809241511, 47763.755650968036, 20581.88862584694, 0.0, 0.0, 0.0, 193.0, 0.0, 159.0, 0.0, 5.0, 0.0, 0.0, 159.0, 5.0, 0.0, 1.681499068067472E9, 0.0, 2023-04-14 13:04:28.067
126.0, 35694.037162546774, 29297.683155260464, 23641.283648167093, 27685.228310254613, -5627.141073601374, 12058.274395260143, 47297.27474418578, 20431.774310085097, 0.0, 0.0, 0.0, 193.0, 0.0, 159.0, 0.0, 5.0, 0.0, 0.0, 159.0, 5.0, 0.0, 1.681499068073891E9, 0.0, 2023-04-14 13:04:28.073
127.0, 35676.60280187164, 29273.632678226553, 22997.68751832098, 27444.455318982044, -5630.11385561393, 12064.465828474264, 47062.559075660596, 20434.389464186366, 0.0, 0.0, 0.0, 193.0, 0.0, 159.0, 0.0, 5.0, 0.0, 0.0, 159.0, 5.0, 0.0, 1.681499068073901E9, 0.0, 2023-04-14 13:04:28.073
128.0, 35701.14501728356, 29304.23221638587, 23364.032609943464, 27738.76073822507, -5532.861415488889, 12136.863128765002, 47422.15394045758, 20549.098616731004, 0.0, 0.0, 0.0, 193.0, 0.0, 159.0, 0.0, 5.0, 0.0, 0.0, 159.0, 5.0, 0.0, 1.68149906808189E9, 0.0, 2023-04-14 13:04:28.081
129.0, 35716.09833432416, 29325.108745707126, 24147.550660079796, 28085.99508833827, -5526.2676508745735, 12135.477320608774, 47747.08124960438, 20569.997497796714, 0.0, 0.0, 0.0, 193.0, 0.0, 159.0, 0.0, 5.0, 0.0, 0.0, 159.0, 5.0, 0.0, 1.681499068081908E9, 0.0, 2023-04-14 13:04:28.081
130.0, 35682.3248484522, 29272.69390495943, 23760.59726006952, 27733.10574687788, -5653.0020419361645, 12029.95473503527, 47341.84412262966, 20413.356472653923, 0.0, 0.0, 0.0, 193.0, 0.0, 159.0, 0.0, 5.0, 0.0, 0.0, 159.0, 5.0, 0.0, 1.681499068089834E9, 0.0, 2023-04-14 13:04:28.089
131.0, 35657.93909525145, 29239.7027301434, 23005.30946318024, 27407.217312719502, -5675.353786391472, 12019.874098285925, 47011.70885702477, 20388.74720200863, 0.0, 0.0, 0.0, 193.0, 0.0, 159.0, 0.0, 5.0, 0.0, 0.0, 159.0, 5.0, 0.0, 1.681499068089855E9, 0.0, 2023-04-14 13:04:28.089
132.0, 35671.596011113645, 29261.674494942963, 23169.795950626845, 27610.841704707353, -5582.169363757296, 12085.58822698453, 47279.88508699955, 20491.587578247498, 0.0, 0.0, 0.0, 193.0, 0.0, 159.0, 0.0, 5.0, 0.0, 0.0, 159.0, 5.0, 0.0, 1.681499068097005E9, 0.0, 2023-04-14 13:04:28.097
133.0, 35696.80877885923, 29293.95041393643, 24018.871667250594, 28030.719224300294, -5537.354116124406, 12119.696989023327, 47701.30487695991, 20550.707942331785, 0.0, 0.0, 0.0, 193.0, 0.0, 159.0, 0.0, 5.0, 0.0, 0.0, 159.0, 5.0, 0.0, 1.681499068103512E9, 0.0, 2023-04-14 13:04:28.103
134.0, 35669.60670585713, 29252.934962860938, 23874.814674236142, 27791.68966909524, -5655.281919870606, 12020.254077941667, 47406.70888503896, 20407.500315606634, 0.0, 0.0, 0.0, 193.0, 0.0, 159.0, 0.0, 5.0, 0.0, 0.0, 159.0, 5.0, 0.0, 1.681499068103522E9, 0.0, 2023-04-14 13:04:28.103
135.0, 35634.58152229566, 29212.634767608022, 23044.045036321288, 27384.41853337509, -5708.210850740773, 11983.194885634766, 46985.020874145135, 20347.530585233046, 0.0, 0.0, 0.0, 193.0, 0.0, 159.0, 0.0, 5.0, 0.0, 0.0, 159.0, 5.0, 0.0, 1.681499068111377E9, 0.0, 2023-04-14 13:04:28.111
136.0, 35639.07422293117, 29222.178962490438, 23012.21615221693, 27494.791447495398, -5634.763018460634, 12039.677743873328, 47150.04380345867, 20432.869545563408, 0.0, 0.0, 0.0, 193.0, 0.0, 158.0, 0.0, 5.0, 0.0, 0.0, 158.0, 5.0, 0.0, 1.681499068111389E9, 0.0, 2023-04-14 13:04:28.111
137.0, 35681.0731507627, 29259.349913519614, 23848.976057645807, 27927.00713002767, -5565.517314138093, 12095.1547736114, 47622.42557077713, 20523.662331540865, 0.0, 0.0, 0.0, 193.0, 0.0, 159.0, 0.0, 5.0, 0.0, 0.0, 159.0, 5.0, 0.0, 1.681499068119565E9, 0.0, 2023-04-14 13:04:28.119
138.0, 35649.311321891706, 29234.718291129866, 23961.718256678374, 27847.926658144792, -5664.043803697086, 12009.391130136388, 47466.9021328571, 20399.721908536187, 0.0, 0.0, 0.0, 193.0, 0.0, 159.0, 0.0, 5.0, 0.0, 0.0, 159.0, 5.0, 0.0, 1.681499068119585E9, 0.0, 2023-04-14 13:04:28.119
139.0, 35606.68654521544, 29186.68439229541, 23146.930116049065, 27414.079298267283, -5742.18550231284, 11952.505940497631, 47005.986810444214, 20306.537485902012, 0.0, 0.0, 0.0, 193.0, 0.0, 159.0, 0.0, 5.0, 0.0, 0.0, 159.0, 5.0, 0.0, 1.681499068126686E9, 0.0, 2023-04-14 13:04:28.126
140.0, 35607.46885627137, 29196.027421477727, 22906.58180792115, 27410.413612176613, -5684.182725451318, 11992.783784006095, 47050.332671443546, 20373.972698923673, 0.0, 0.0, 0.0, 193.0, 0.0, 159.0, 0.0, 5.0, 0.0, 0.0, 159.0, 5.0, 0.0, 1.681499068126711E9, 0.0, 2023-04-14 13:04:28.126
141.0, 35637.37549035257, 29229.666796882964, 23659.25445070916, 27842.60694296443, -5597.457956964727, 12058.855540615981, 47530.85047374374, 20489.01712763514, 0.0, 0.0, 0.0, 193.0, 0.0, 159.0, 0.0, 5.0, 0.0, 0.0, 159.0, 5.0, 0.0, 1.68149906813415E9, 0.0, 2023-04-14 13:04:28.134
142.0, 35626.512542547294, 29211.651290851987, 24004.27597812128, 27884.605870795953, -5668.3800421214155, 11994.348406117966, 47519.1158079047, 20405.71217605021, 0.0, 0.0, 0.0, 193.0, 0.0, 159.0, 0.0, 5.0, 0.0, 0.0, 159.0, 5.0, 0.0, 1.681499068134163E9, 0.0, 2023-04-14 13:04:28.134
143.0, 35590.97326886335, 29159.817595460132, 23237.40997760415, 27421.880057082184, -5768.113525880996, 11918.866565092394, 47032.51833111267, 20287.627910092822, 0.0, 0.0, 0.0, 193.0, 0.0, 159.0, 0.0, 5.0, 0.0, 0.0, 159.0, 5.0, 0.0, 1.681499068142137E9, 0.0, 2023-04-14 13:04:28.142
144.0, 35587.508748472785, 29148.86524067703, 22819.47705977882, 27325.40992801308, -5726.1369497939295, 11957.848007422448, 46966.46892624723, 20335.192422293716, 0.0, 0.0, 0.0, 193.0, 0.0, 159.0, 0.0, 5.0, 0.0, 0.0, 159.0, 5.0, 0.0, 1.681499068142148E9, 0.0, 2023-04-14 13:04:28.142
145.0, 35610.66515572848, 29187.891386495998, 23461.77678844652, 27736.25734284608, -5625.487044511681, 12035.140339748901, 47432.43574290702, 20460.85392962145, 0.0, 0.0, 0.0, 193.0, 0.0, 159.0, 0.0, 5.0, 0.0, 0.0, 159.0, 5.0, 0.0, 1.68149906814909E9, 0.0, 2023-04-14 13:04:28.149
146.0, 35617.75065872081, 29192.45114236488, 24033.914391269016, 27922.2909119476, -5666.547199076081, 11993.968426462225, 47573.0282155309, 20417.759766311618, 0.0, 0.0, 0.0, 193.0, 0.0, 159.0, 0.0, 5.0, 0.0, 0.0, 159.0, 5.0, 0.0, 1.681499068149101E9, 0.0, 2023-04-14 13:04:28.149
147.0, 35571.16962327595, 29137.756423682742, 23360.031647685963, 27461.979086635005, -5783.893857466443, 11900.87341080587, 47077.870020612485, 20271.847578507375, 0.0, 0.0, 0.0, 193.0, 0.0, 159.0, 0.0, 5.0, 0.0, 0.0, 159.0, 5.0, 0.0, 1.681499068155747E9, 0.0, 2023-04-14 13:04:28.155
148.0, 35558.0938527696, 29123.741879909263, 22805.66368170544, 27281.4887501584, -5768.4040985589145, 11921.727588382673, 46914.635230855376, 20297.4403259087, 0.0, 0.0, 0.0, 193.0, 0.0, 159.0, 0.0, 5.0, 0.0, 0.0, 159.0, 5.0, 0.0, 1.681499068163719E9, 0.0, 2023-04-14 13:04:28.163
149.0, 35583.731303659835, 29151.547450011665, 23287.70140262859, 27623.02340543549, -5668.871780499432, 11996.874153241415, 47321.05700028622, 20414.094080220948, 0.0, 0.0, 0.0, 193.0, 0.0, 159.0, 0.0, 5.0, 0.0, 0.0, 159.0, 5.0, 0.0, 1.681499068163729E9, 0.0, 2023-04-14 13:04:28.163
150.0, 35594.81776890967, 29168.11009265305, 24002.17491414248, 27916.345347922488, -5676.2478561696835, 11986.793516492071, 47582.21478250203, 20412.95414125373, 0.0, 0.0, 0.0, 193.0, 0.0, 159.0, 0.0, 5.0, 0.0, 0.0, 159.0, 5.0, 0.0, 1.681499068171519E9, 0.0, 2023-04-14 13:04:28.171
151.0, 35557.91503881395, 29115.583493183076, 23520.204248452694, 27529.838982801317, -5799.294209396149, 11888.244675188622, 47154.558855838644, 20264.896185981775, 0.0, 0.0, 0.0, 193.0, 0.0, 159.0, 0.0, 5.0, 0.0, 0.0, 159.0, 5.0, 0.0, 1.681499068171532E9, 0.0, 2023-04-14 13:04:28.171
152.0, 35539.407794404964, 29092.583548138566, 22820.818164446137, 27243.96017121794, -5802.579915831079, 11883.550808853008, 46876.34669260344, 20253.38503758729, 0.0, 0.0, 0.0, 193.0, 0.0, 159.0, 0.0, 5.0, 0.0, 0.0, 159.0, 5.0, 0.0, 1.681499068178817E9, 0.0, 2023-04-14 13:04:28.178
153.0, 35550.114279999056, 29118.24335077326, 23109.937978975533, 27506.25789240097, -5702.6005628824905, 11953.243548064656, 47204.35854248507, 20365.434332541747, 0.0, 0.0, 0.0, 193.0, 0.0, 159.0, 0.0, 5.0, 0.0, 0.0, 159.0, 5.0, 0.0, 1.681499068178833E9, 0.0, 2023-04-14 13:04:28.178
154.0, 35569.29207674171, 29145.62423773101, 23944.105082047594, 27898.128676191413, -5678.863010270955, 11970.208522106233, 47584.852288347756, 20411.47892611968, 0.0, 0.0, 0.0, 193.0, 0.0, 159.0, 0.0, 5.0, 0.0, 0.0, 159.0, 5.0, 0.0, 1.681499068186465E9, 0.0, 2023-04-14 13:04:28.186
155.0, 35549.77900383223, 29110.733164636276, 23662.294287955083, 27594.70374521062, -5805.329180399082, 11866.518779578064, 47225.503292739784, 20260.045857434972, 0.0, 0.0, 0.0, 193.0, 0.0, 159.0, 0.0, 5.0, 0.0, 0.0, 159.0, 5.0, 0.0, 1.681499068186475E9, 0.0, 2023-04-14 13:04:28.186
156.0, 35533.819858291135, 29080.826530555074, 22867.108627213078, 27233.00781643484, -5832.911233056931, 11855.164093394767, 46853.61496849239, 20224.03719711747, 0.0, 0.0, 0.0, 193.0, 0.0, 159.0, 0.0, 5.0, 0.0, 0.0, 159.0, 5.0, 0.0, 1.68149906819424E9, 0.0, 2023-04-14 13:04:28.194
157.0, 35550.89659105499, 29102.842998843553, 22954.05691314422, 27400.645899849642, -5745.202987814306, 11919.648876148329, 47081.580410192066, 20324.821212866453, 0.0, 0.0, 0.0, 193.0, 0.0, 159.0, 0.0, 5.0, 0.0, 0.0, 159.0, 5.0, 0.0, 1.681499068194257E9, 0.0, 2023-04-14 13:04:28.194
158.0, 35571.86252735407, 29132.548467224657, 23815.582551429576, 27844.84211740996, -5690.687083087812, 11962.161894102323, 47534.82908425678, 20402.761745782107, 0.0, 0.0, 0.0, 193.0, 0.0, 159.0, 0.0, 5.0, 0.0, 0.0, 159.0, 5.0, 0.0, 1.681499068202516E9, 0.0, 2023-04-14 13:04:28.202
159.0, 35547.32031194214, 29099.75845810872, 23783.150170224926, 27663.70358034415, -5806.223250177294, 11865.781172011039, 47299.10758723111, 20261.945755713674, 0.0, 0.0, 0.0, 193.0, 0.0, 159.0, 0.0, 5.0, 0.0, 0.0, 159.0, 5.0, 0.0, 1.681499068202532E9, 0.0, 2023-04-14 13:04:28.202
160.0, 35520.85584650706, 29057.915992488386, 22947.8654799301, 27221.139040129074, -5869.724556174821, 11821.122386589335, 46855.09018362644, 20187.00035655503, 0.0, 0.0, 0.0, 193.0, 0.0, 159.0, 0.0, 5.0, 0.0, 0.0, 159.0, 5.0, 0.0, 1.681499068209024E9, 0.0, 2023-04-14 13:04:28.209
161.0, 35523.02396571922, 29070.388265894446, 22846.36620835855, 27294.899796831585, -5792.186354659361, 11883.170829197268, 46981.39989154338, 20275.06622970894, 0.0, 0.0, 0.0, 193.0, 0.0, 159.0, 0.0, 5.0, 0.0, 0.0, 159.0, 5.0, 0.0, 1.681499068209039E9, 0.0, 2023-04-14 13:04:28.209
162.0, 35546.538000886205, 29113.549484437644, 23674.54304391659, 27778.03275323305, -5712.703551376289, 11947.812074162017, 47471.70775791499, 20381.12525714937, 0.0, 0.0, 0.0, 193.0, 0.0, 159.0, 0.0, 5.0, 0.0, 0.0, 159.0, 5.0, 0.0, 1.681499068215978E9, 0.0, 2023-04-14 13:04:28.215
163.0, 35536.43501239241, 29091.264795215702, 23877.83215973761, 27729.97650265414, -5807.296133911149, 11866.228206900145, 47363.52531475131, 20267.936023227696, 0.0, 0.0, 0.0, 193.0, 0.0, 159.0, 0.0, 5.0, 0.0, 0.0, 159.0, 5.0, 0.0, 1.681499068224012E9, 0.0, 2023-04-14 13:04:28.224
164.0, 35498.12412239601, 29034.871343954965, 23050.191766046497, 27259.15935744755, -5897.105443132573, 11800.067043312436, 46870.19996287823, 20158.747751563522, 0.0, 0.0, 0.0, 193.0, 0.0, 159.0, 0.0, 5.0, 0.0, 0.0, 159.0, 5.0, 0.0, 1.681499068224027E9, 0.0, 2023-04-14 13:04:28.224
